Depth (nm)	Load (µN)
2.522321	2.203796
2.597658	2.206489
2.661293	2.138822
2.61766	        2.147811
2.465772	2.160362
2.566712	2.100672
2.458947	2.118959
2.562147	2.087739
2.593991	2.034526
2.575644	1.989343
2.674918	1.92292
2.637124	1.885524
2.656736	1.804979
2.356937	1.841919
2.521696	1.747873
2.365271	1.727099
2.609171	1.646439
2.52477	1.590269
2.475466	1.530925
2.561655	1.452058
2.448708	1.398029
2.468427	1.317949
2.566344	1.215166
2.515537	1.130625
2.45011	        1.070753
2.379992	1.001917
2.327533	0.927975
2.397648	0.846055
2.388441	0.784173
2.352728	0.692514
2.333437	0.620498
2.436182	0.49819
2.297004	0.425907
2.189213	0.359632
2.115253	0.315741
2.124554	0.251003
2.127654	0.172232
2.231833	0.061794
2.066768	0.015442
2.024022	-0.057464
1.934355	-0.098322
1.970062	-0.179303
1.924137	-0.229376
1.859021	-0.28348
1.902108	-0.349637
1.889742	-0.426327
1.670395	-0.455918
1.71795	-0.515014
1.560794	-0.53511
1.675445	-0.588644
1.724238	-0.668096
1.479524	-0.673401
1.577772	-0.723106
1.552869	-0.771073
1.430891	-0.803519
1.335676	-0.802523
1.509777	-0.888093
1.414699	-0.913888
1.584167	-1.015945
1.339356	-1.019281
1.353128	-1.075203
1.551348	-1.167188
1.228447	-1.162804
1.30776	        -1.231558
1.083309	-1.239963
1.161305	-1.275265
0.949332	-1.282877
0.994633	-1.294265
0.9538	        -1.286164
0.927667	-1.313392
0.916376	-1.334912
0.925988	-1.337128
0.833839	-1.373733
0.69798	-1.345827
0.586077	-1.32426
0.683053	-1.331145
0.681809	-1.34368
0.559536	-1.319054
0.638739	-1.334212
0.611723	-1.328039
0.588426	-1.323241
0.501169	-1.30621
0.69075	-1.3651
0.558326	-1.376036
0.450338	-1.353977
0.565596	-1.379908
0.452803	-1.408257
0.470294	-1.412046
0.415278	-1.40016
0.340277	-1.385071
0.370674	-1.423338
0.383376	-1.451791
0.239584	-1.42306
0.239156	-1.422605
0.290446	-1.432115
0.162205	-1.438363
0.27801	        -1.469155
0.122909	-1.454334
0.250503	-1.480602
0.147689	-1.501931
-0.095975	-1.430701
0.026847	-1.436106
-0.084451	-1.412436
-0.130054	-1.403996
0.032705	-1.435469
-0.036826	-1.429895
-0.021489	-1.454657
-0.17987	-1.453384
-0.148522	-1.458693
-0.267323	-1.434354
-0.247752	-1.436969
-0.290851	-1.408168
-0.257896	-1.377756
-0.342059	-1.386611
-0.343856	-1.360265
-0.41195	-1.346114
-0.402052	-1.348187
-0.275946	-1.373203
-0.345421	-1.390182
-0.257705	-1.434917
-0.43448	-1.399604
-0.610525	-1.364746
-0.679228	-1.333105
-0.566613	-1.371427
-0.584013	-1.322902
-0.697285	-1.287559
-0.67536	-1.291312
-0.49225	-1.328689
-0.727844	-1.324095
-0.787758	-1.269499
-0.918917	-1.242597
-0.773602	-1.266256
-0.709932	-1.284639
-0.721183	-1.281386
-0.731776	-1.278948
-0.774772	-1.276364
-0.809478	-1.286221
-0.693625	-1.344072
-0.917754	-1.300012
-0.956267	-1.292568
-0.904905	-1.303014
-0.919768	-1.317031
-1.04026	-1.289916
-0.926642	-1.348351
-0.815206	-1.375276
-0.915743	-1.409789
-1.088848	-1.374573
-1.068343	-1.378457
-0.970529	-1.438003
-1.189187	-1.409254
-1.131714	-1.421099
-1.43341	-1.36103
-1.228636	-1.401029
-1.374267	-1.373259
-1.434595	-1.343478
-1.439279	-1.306059
-1.492564	-1.29421
-1.399318	-1.311684
-1.337977	-1.324315
-1.375025	-1.316327
-1.290113	-1.362654
-1.555223	-1.335931
-1.514134	-1.343199
-1.551421	-1.336791
-1.502563	-1.345681
-1.633438	-1.319898
-1.594486	-1.327702
-1.587144	-1.328742
-1.69054	-1.3078
-1.832013	-1.281142
-1.905221	-1.244176
-1.77029	-1.23613
-1.577867	-1.304125
-1.741409	-1.296926
-1.738223	-1.296637
-1.755219	-1.300543
-1.895589	-1.305321
-1.825906	-1.327547
-1.963869	-1.308908
-1.906723	-1.321391
-1.729736	-1.355418
-2.039439	-1.302152
-1.929757	-1.327182
-2.029826	-1.347089
-1.925862	-1.370285
-2.141958	-1.326087
-2.200231	-1.314737
-2.224108	-1.310103
-2.238378	-1.272245
-2.293217	-1.241322
-2.186458	-1.262573
-2.212407	-1.257726
-2.255428	-1.25595
-2.34127	-1.231973
-2.493348	-1.20224
-2.238664	-1.252447
-2.344614	-1.231337
-2.344651	-1.244653
-2.277241	-1.295073
-2.478498	-1.25759
-2.61529	-1.229869
-2.582309	-1.190128
-2.508515	-1.197037
-2.600863	-1.17905
-2.475415	-1.213628
-2.590147	-1.225714
-2.502912	-1.246615
-2.52696	-1.246285
-2.655856	-1.228844
-2.768136	-1.198187
-2.715256	-1.207721
-2.623994	-1.226863
-2.612128	-1.287664
-2.657078	-1.27744
-2.793216	-1.250572
-2.782769	-1.303138
-2.875693	-1.291242
-2.958644	-1.27359
-2.847666	-1.295052
-3.013433	-1.262905
-3.036244	-1.228174
-3.046475	-1.219592
-2.984716	-1.253324
-3.145165	-1.190234
-3.11824	-1.185292
-3.065822	-1.194616
-3.178689	-1.171828
-3.101005	-1.18761
-3.028115	-1.238053
-3.231681	-1.208701
-3.078106	-1.246927
-3.187526	-1.226303
-3.280543	-1.208174
-3.395257	-1.185014
-3.226091	-1.218573
-3.279579	-1.230365
-3.372017	-1.266882
-3.353668	-1.269878
-3.342509	-1.272797
-3.379677	-1.264925
-3.212079	-1.330567
-3.524797	-1.287828
-3.559464	-1.280396
-3.585494	-1.274751
-3.592474	-1.273201
-3.743215	-1.22044
-3.597358	-1.219299
-3.647512	-1.213214
-3.617429	-1.259655
-3.668301	-1.257052
-3.903579	-1.191336
-3.824185	-1.173913
-3.814565	-1.17561
-3.825507	-1.173834
-4.072365	-1.124169
-3.72695	-1.151483
-3.640261	-1.209365
-3.729344	-1.232178
-3.820385	-1.225548
-3.994006	-1.190821
-3.917568	-1.205399
-3.871639	-1.232488
-3.921708	-1.260932
-3.834721	-1.278518
-4.121639	-1.26066
-4.24134	-1.198062
-4.22591	-1.200438
-4.152179	-1.214352
-4.213022	-1.202113
-4.332793	-1.178629
-4.222995	-1.146797
-4.131801	-1.213953
-4.108932	-1.221902
-4.397017	-1.163587
-4.508496	-1.141838
-4.527015	-1.100559
-4.455047	-1.097598
-4.381523	-1.111687
-4.518023	-1.084006
-4.467798	-1.093697
-4.44887	-1.096949
-4.562873	-1.074846
-4.436794	-1.098834
-4.416021	-1.102797
-4.55704	-1.126314
-4.526792	-1.135995
-4.374519	-1.166995
-4.52798	-1.185956
-4.653145	-1.165912
-4.675072	-1.161913
-4.560496	-1.183454
-4.78289	-1.14059
-4.67795	-1.180085
-4.724621	-1.209139
-4.891263	-1.177112
-4.796435	-1.194734
-4.897459	-1.174369
-4.965873	-1.160803
-4.847545	-1.183742
-4.912147	-1.171088
-4.991362	-1.154262
-4.872437	-1.179107
-4.719571	-1.26018
-5.031212	-1.228126
-5.026222	-1.244971
-5.001403	-1.261756
-5.188334	-1.224572
-5.068687	-1.248386
-5.137821	-1.234653
-5.284956	-1.205479
-5.247489	-1.211942
-5.327378	-1.196188
-5.340334	-1.193885
-5.248233	-1.212838
-5.426079	-1.175815
-5.271362	-1.194179
-5.444268	-1.171814
-5.555675	-1.124095
-5.598048	-1.084309
-5.578255	-1.073637
-5.766144	-1.008085
-5.520907	-1.045815
-5.62989	-1.024065
-5.519823	-1.04491
-5.572299	-1.034886
-5.513054	-1.046511
-5.577693	-1.033496
-5.644713	-1.019972
-5.600902	-1.028407
-5.669195	-1.063178
-5.678284	-1.065217
-5.670498	-1.066893
-5.78169	-1.045613
-5.857652	-1.028891
-5.678334	-1.063298
-5.846995	-1.030838
-5.835492	-1.068858
-5.790642	-1.083538
-5.879065	-1.080431
-5.648857	-1.143872
-5.927841	-1.126081
-5.885232	-1.134304
-5.885826	-1.164744
-5.921933	-1.184495
-6.034994	-1.162383
-5.930485	-1.213511
-6.030398	-1.215173
-6.213113	-1.178069
-6.276223	-1.16617
-6.353854	-1.122073
-6.261109	-1.117065
-6.260019	-1.116729
-6.355247	-1.098313
-6.240437	-1.120651
-6.396153	-1.08972
-6.230215	-1.13299
-6.346917	-1.151719
-6.421757	-1.135948
-6.621522	-1.084929
-6.379189	-1.091841
-6.51424	-1.067198
-6.407479	-1.106398
-6.43415	-1.131785
-6.481375	-1.122964
-6.557148	-1.107051
-6.427443	-1.159395
-6.559033	-1.163567
-6.713303	-1.132821
-6.851221	-1.102014
-6.832748	-1.05191
-6.865327	-1.045878
-6.642758	-1.090014
-6.720588	-1.074998
-6.761961	-1.065481
-7.050559	-1.028733
-6.942557	-1.028966
-6.841879	-1.049436
-6.830007	-1.050049
-6.873039	-1.041666
-6.774773	-1.086284
-6.852198	-1.102017
-7.137549	-1.046548
-7.03195	-1.066598
-7.070303	-1.058162
-7.126786	-1.048223
-7.101273	-1.052356
-7.093069	-1.053738
-7.050486	-1.062321
-7.056164	-1.060266
-7.08408	-1.107479
-7.275953	-1.071544
-7.275538	-1.070047
-7.405402	-1.044108
-7.313311	-1.061973
-7.342032	-1.056452
-7.290391	-1.066489
-7.407912	-1.044055
-7.560428	-1.007953
-7.482165	-0.973496
-7.293321	-1.020687
-7.469679	-1.017534
	
-7.360202	-1.049354
-7.450005	-0.992256
-7.506419	-0.94112
-7.577416	-0.848705
-7.529687	-0.755137
-7.282223	-0.728259
-7.241079	-0.686573
-7.24356	-0.63023
-7.0782	        -0.607448
-6.948374	-0.631902
-6.998279	-0.598328
-6.901737	-0.583393
-6.849551	-0.593416
-6.822684	-0.551168
-6.717075	-0.566756
-6.733166	-0.558075
-6.680359	-0.495175
-6.635727	-0.487591
-6.663301	-0.406571
-6.462038	-0.422929
-6.545364	-0.372292
-6.284764	-0.404
-6.363765	-0.389097
-6.259635	-0.408203
-6.264584	-0.377519
-6.122507	-0.375521
-6.16029	-0.367949
-5.962663	-0.40627
-6.02324	-0.394729
-6.122788	-0.362084
-6.065252	-0.317406
-6.066335	-0.242918
-5.941861	-0.221927
-5.785968	-0.215061
-5.703934	-0.229884
-5.710663	-0.203521
-5.697156	-0.174706
-5.602719	-0.139438
-5.452503	-0.164604
-5.474708	-0.159972
-5.385901	-0.17753
-5.409697	-0.173026
-5.372464	-0.128148
-5.301667	-0.139508
-5.239918	-0.10459
-5.20707	-0.099222
-5.157817	-0.10171
-5.03418	-0.077162
-5.050511	-0.073401
-4.964124	-0.090222
-4.979605	-0.051394
-4.926536	-0.039447
-4.857156	-0.049339
-4.78715	-0.01346
-4.743253	-0.02261
-4.749397	0.029228
-4.569149	0.012642
-4.461998	-0.008343
-4.56498	0.012513
-4.608751	0.06372
-4.508252	0.095019
-4.467688	0.11723
-4.454197	0.17201
-4.219369	0.137341
-4.15906	0.150204
-4.134243	0.109849
-4.050042	0.084539
-4.098922	0.137618
-3.964429	0.127345
-3.904013	0.115371
-3.958357	0.126615
-3.912349	0.137392
-3.870194	0.159371
-3.760663	0.144704
-3.802622	0.167964
-3.771758	0.231646
-3.672871	0.240859
-3.588557	0.225003
-3.492483	0.264188
-3.449508	0.257001
-3.416391	0.251007
-3.39501	0.247349
-3.342494	0.277595
-3.285489	0.283738
-3.158193	0.25883
-3.317863	0.312891
-3.278709	0.378082
-3.213646	0.422333
-3.035944	0.42574
-2.969532	0.452911
-3.034353	0.479642
-2.988163	0.515322
-2.852552	0.541709
-2.763147	0.524751
-2.726905	0.517798
-2.668237	0.555229
-2.508509	0.543597
-2.562118	0.494549
-2.573101	0.563533
-2.600132	0.592199
-2.530896	0.650226
-2.387903	0.646222
-2.295806	0.658027
-2.140537	0.598248
-2.096073	0.590276
-2.136626	0.598102
-2.1033	        0.591321
-1.993641	0.570491
-2.039607	0.580264
-1.998746	0.615867
-1.914617	0.610687
-1.906535	0.60882
-1.951859	0.663659
-1.890806	0.704935
-1.905197	0.768447
-1.930791	0.854022
-1.69308	0.866519
-1.811351	0.972859
-1.59425	1.000123
-1.559199	1.010737
-1.360061	1.028383
-1.375476	1.032437
-1.279181	1.013691
-1.398919	1.063939
-1.459812	1.131759
-1.261727	1.178969
-1.204929	1.211026
-1.000035	1.19477
-1.065807	1.208442
-0.892119	1.181353
-0.959699	1.205965
-1.033132	1.271346
-1.07791	1.36736
-0.888664	1.408308
-0.888545	1.464491
-0.769811	1.506943
-0.6376	        1.526041
-0.608417	1.528585
-0.634841	1.584811
-0.468738	1.564054
-0.529784	1.619878
-0.377653	1.615148
-0.436289	1.678932
-0.483144	1.760082
-0.227103	1.755369
-0.301153	1.807185
-0.173536	1.813627
-0.135647	1.854825
-0.139409	1.90393
-0.112658	1.974281
-0.013484	2.009074
0	        2.175908
	
0.096994	3.618045
0.550671	5.847918
1.062567	9.131819
1.492669	12.939056
2.057463	16.959646
2.733276	21.085923
3.320943	25.269252
4.050202	29.443969
4.441081	33.631714
4.958945	37.784396
5.285073	41.925842
5.987075	46.033962
6.409353	50.158248
6.910354	54.258179
7.411074	58.36166
7.854454	62.445154
8.379909	66.512362
8.888927	70.615761
9.35975	        74.693654
10.155061	78.70723
10.5981	        82.802114
11.206967	86.870617
11.641919	90.92418
12.327972	94.962468
13.081184	99.015166
13.709934	103.068292
14.354091	107.118068
14.989723	111.152213
15.54027	115.224704
16.273139	119.229601
17.230782	123.255249
17.683095	127.339892
18.33949	131.373082
18.819587	135.415847
19.457492	139.43594
20.264653	143.4529
21.115064	147.489936
21.833291	151.522308
22.300924	155.570464
22.855769	159.598265
23.863293	163.59198
24.768528	167.62646
25.44439	171.673284
26.40917	175.665513
27.213541	179.725066
27.943039	183.73244
29.023548	187.756119
29.409403	191.814124
30.615358	195.766125
31.88184	199.797977
32.741501	203.858063
33.421379	207.898093
34.018164	211.916238
34.85936	215.905912
36.291492	219.898618
37.047049	223.965526
37.598965	227.997181
38.785621	231.961963
39.6239	        236.011806
40.124086	240.06722
41.004562	244.04096
42.067474	248.059636
43.257924	252.056556
44.497851	256.069963
45.830423	260.076188
48.44743	263.984269
50.961388	268.034249
51.807239	272.173401
52.143828	276.214849
53.709564	280.106618
55.990944	284.132162
58.07174	288.158875
58.829301	292.252176
59.172587	296.286495
60.139217	300.247985
61.008586	304.290976
61.927816	308.290432
63.045526	312.278081
63.836554	316.342342
64.248434	320.355471
65.236503	324.291259
67.674371	328.308697
68.406059	332.370414
70.999453	336.275772
71.917553	340.397896
72.682542	344.406287
73.502118	348.426581
75.293593	352.340375
76.958077	356.421765
78.222791	360.415493
79.36173	364.470818
80.41897	368.454497
80.628021	372.529014
80.926066	376.539973
82.94123	380.448426
84.066556	384.507172
85.249849	388.508937
85.898689	392.569514
86.330199	396.579283
86.925343	400.563423
87.508982	404.586855
89.591879	408.483463
92.440539	412.479341
94.278654	416.569363
95.364254	420.606171
96.210081	424.613779
96.59245	428.640548
98.380167	432.574405
99.537474	436.651126
100.814985	440.626701
102.192287	444.632995
103.201507	448.679569
103.881132	452.687332
104.131996	456.712613
104.987797	460.703509
105.666429	464.724992
106.03657	468.735023
106.343214	472.75007
106.868067	476.737923
107.673018	480.733622
108.35899	484.745499
108.669754	488.794209
110.40586	492.683508
111.868844	496.780681
112.041943	500.805565
112.744879	504.785071
114.719986	508.721848
116.874387	512.760451
117.2129	516.855363
119.020013	520.761043
119.653571	524.865496
120.241939	528.822156
121.847645	532.821086
122.941631	536.828487
124.13877	540.839834
125.125587	544.85257
125.887974	548.89333
126.407277	552.884198
127.07103	556.903705
127.28724	560.916392
127.610056	564.934312
128.172555	568.910556
129.329139	572.867322
130.892796	576.904161
132.474485	580.895873
133.355955	584.941408
133.722479	588.954712
134.895633	592.915966
135.638404	596.983428
136.269868	600.95501
137.420436	604.94967
138.303745	608.960588
138.60182	613.019753
139.61116	616.963872
140.603219	621.00022
140.819068	625.02464
141.51109	628.995096
143.837949	632.95938
145.003186	637.018197
145.424473	641.023423
146.17306	645.047086
146.3937	649.04814
146.768171	653.062232
147.059423	657.067153
147.383648	661.077242
148.976043	664.996936
150.602786	669.053128
150.974798	673.079874
151.514809	677.057224
154.018528	681.037335
154.699248	685.10565
155.797373	689.078346
156.499078	693.096641
156.848115	697.133989
157.562246	701.093162
159.600328	705.068412
160.888116	709.112948
161.249553	713.151646
163.435013	717.062315
164.44093	721.139873
164.711328	725.163366
165.163968	729.147113
165.449792	733.179099
165.867544	737.165854
166.016583	741.192023
166.990284	745.112802
168.602229	749.191921
168.885399	753.201304
169.08884	757.190766
169.766777	761.191335
171.410162	765.140094
172.755507	769.2124
172.945959	773.231712
173.370078	777.216175
173.66264	781.234337
173.756519	785.240169
175.038693	789.168795
178.470308	793.169719
179.663768	797.223073
180.114554	801.250553
180.30562	805.282492
180.932375	809.237659
181.753978	813.254694
182.4335	817.260755
182.512406	821.26776
183.633633	825.26342
184.651716	829.272366
185.553001	833.288733
185.944496	837.288459
186.316905	841.295293
186.677408	845.303985
186.994497	849.316179
188.184679	853.253906
190.44773	857.27458
191.118732	861.330486
192.017247	865.303109
192.688924	869.318494
193.501745	873.328372
193.94143	877.334799
194.000445	881.360504
194.927169	885.331783
195.367415	889.335951
196.142458	893.352856
196.934952	897.341712
197.11213	901.394027
197.471824	905.371661
198.612701	909.353117
199.091193	913.386955
199.33231	917.378994
199.489117	921.409292
200.052879	925.378263
200.420358	929.394186
201.816002	933.372381
202.416201	937.395866
202.71146	941.418284
203.218768	945.417438
203.519279	949.415331
203.653035	953.43695
203.828345	957.429565
203.858111	961.425485
204.360579	965.447869
204.497996	969.43785
204.811876	973.427446
206.190045	977.4297
206.340131	981.448171
206.484971	985.480801
206.814415	989.461202
207.148794	993.458685
209.635965	997.406827
210.438708	1001.471964
210.769182	1005.482527
210.865397	1009.496863
210.911011	1013.480761
211.925694	1017.466796
212.429359	1021.483638
212.840162	1025.502684
213.11936	1029.503416
213.216658	1033.509765
213.874172	1037.485347
214.817248	1041.501772
215.243212	1045.513386
215.303737	1049.533346
215.681894	1053.52303
215.98824	1057.522854
216.375972	1061.528545
216.575921	1065.533663
216.543527	1069.55877
217.018026	1073.522214
218.190239	1077.540165
218.42724	1081.563557
218.916918	1085.537802
219.122219	1089.557776
219.45739	1093.580424
220.162536	1097.543839
221.0174	1101.566031
221.322414	1105.576513
221.702595	1109.55754
222.660622	1113.572808
223.284939	1117.581781
224.020516	1121.574479
224.254241	1125.605767
224.627203	1129.592925
224.890119	1133.585192
225.251178	1137.613527
225.627933	1141.604578
226.337161	1145.596463
226.473312	1149.627056
226.669335	1153.604301
226.727237	1157.631117
227.316904	1161.620634
228.097601	1165.627524
228.357919	1169.642955
228.842978	1173.623371
229.061124	1177.636928
229.130303	1181.66266
229.218164	1185.64342
229.772601	1189.637542
230.097419	1193.662555
230.667503	1197.643881
231.1308	1201.644215
231.540359	1205.676157
232.536209	1209.65694
233.054121	1213.662142
233.637218	1217.649728
235.646705	1221.654087
236.166837	1225.67377
236.590516	1229.696317
236.882836	1233.682682
237.61317	1237.680564
237.673593	1241.702439
238.300666	1245.684062
238.536328	1249.712196
239.027669	1253.710413
239.789517	1257.705759
240.303744	1261.710666
240.591173	1265.721782
241.022199	1269.711811
241.335558	1273.726788
241.610294	1277.729385
241.656127	1281.740659
241.70234	1285.737969
242.267268	1289.727747
243.815987	1293.693556
244.968444	1297.749274
245.256594	1301.75252
245.606677	1305.738153
246.389375	1309.752858
247.027933	1313.751988
247.659656	1317.749513
248.121477	1321.767873
248.352373	1325.763114
248.854773	1329.768206
249.184583	1333.775091
249.165396	1337.78144
249.563639	1341.771889
249.733565	1345.784763
250.757055	1349.793534
251.588909	1353.777871
252.026408	1357.786431
252.449063	1361.813187
252.609761	1365.794558
253.111095	1369.793916
253.533869	1373.813073
253.938489	1377.813494
254.15598	1381.812642
254.516007	1385.815635
254.752568	1389.808973
255.90699	1393.803977
255.998637	1397.84747
256.472908	1401.826635
256.764828	1405.818089
257.863785	1409.834277
258.518535	1413.831699
258.979788	1417.838999
259.386114	1421.856885
259.965023	1425.835207
260.293302	1429.846766
261.18431	1433.832411
262.181971	1437.859839
262.682165	1441.845533
263.04429	1445.887868
263.344006	1449.86582
263.63349	1453.874243
263.767423	1457.873001
263.938837	1461.887929
264.099892	1465.878843
264.230063	1469.887369
264.367799	1473.895225
265.117636	1477.879934
266.735696	1481.871705
268.052662	1485.897325
268.785249	1489.883035
269.264059	1493.898889
269.381895	1497.924183
269.990818	1501.894027
270.713328	1505.906813
270.921784	1509.922754
271.255473	1513.9213
271.598664	1517.915827
271.784675	1521.914584
271.710183	1525.945162
272.093797	1529.930226
272.303822	1533.937272
273.213127	1537.917835
274.505708	1541.930246
274.982431	1545.935465
275.262155	1549.961596
275.71272	1553.942459
275.951248	1557.954406
276.887844	1561.943229
277.93463	1565.950892
278.476543	1569.968577
278.648861	1573.954946
279.084833	1577.982876
279.775644	1581.955207
280.482972	1585.962159
280.850248	1589.989812
281.302557	1593.959403
281.798612	1597.983772
282.524736	1601.996259
282.843073	1605.981345
283.14831	1609.997785
283.266618	1613.986395
283.582204	1618.005655
283.965546	1622.000939
283.850876	1625.991846
284.336604	1630.022198
285.249705	1634.00641
285.64765	1638.007581
285.585871	1642.023993
285.88812	1646.016709
286.086082	1650.014026
286.249214	1654.019375
286.900564	1658.066079
288.894387	1662.016778
289.886953	1666.02434
290.400397	1670.049589
290.795823	1674.023593
291.421733	1678.039602
291.677119	1682.044752
292.126969	1686.0551
292.176065	1690.063018
292.979149	1694.034473
293.538156	1698.063212
294.273268	1702.05022
295.29431	1706.056088
295.682339	1710.078951
296.155932	1714.067579
296.661447	1718.069979
297.229619	1722.070349
297.677521	1726.079907
298.055262	1730.071582
298.655035	1734.080426
298.650454	1738.107884
299.227904	1742.090656
299.537134	1746.084984
300.775439	1750.075907
301.880751	1754.101252
302.581804	1758.088295
303.427287	1762.0983
303.758164	1766.119024
304.132443	1770.108541
304.727774	1774.120596
304.589718	1778.110421
305.007644	1782.123805
305.63721	1786.1177
306.021648	1790.117238
306.626679	1794.139537
306.702693	1798.12721
307.026387	1802.141343
307.524943	1806.127218
308.43405	1810.125754
309.120593	1814.13982
309.579002	1818.139616
310.17492	1822.157079
310.512073	1826.141007
310.541926	1830.164017
310.887752	1834.147454
311.535998	1838.161009
312.218472	1842.15064
312.809013	1846.153652
313.605558	1850.169335
314.159312	1854.166435
314.704878	1858.170943
315.414935	1862.167221
315.578221	1866.185404
315.937497	1870.174016
316.357212	1874.169011
316.931694	1878.193668
317.666739	1882.203071
317.971233	1886.194161
318.209329	1890.189692
318.454397	1894.213815
318.547975	1898.191718
318.727674	1902.20678
318.839594	1906.205121
319.183223	1910.222368
319.947933	1914.186826
320.924766	1918.220163
321.199908	1922.231718
321.589379	1926.207531
322.467453	1930.224926
322.711382	1934.219566
323.381018	1938.240888
323.921798	1942.227009
324.041546	1946.233351
324.38742	1950.23287
324.567396	1954.251937
324.743893	1958.242043
324.962561	1962.242344
325.293581	1966.255325
325.448228	1970.246953
325.608454	1974.257122
325.705407	1978.258219
325.790856	1982.264307
326.27552	1986.239996
328.441652	1990.250157
329.206201	1994.268468
329.700329	1998.285044
330.143097	2002.271563
330.393845	2006.272967
331.147061	2010.279446
332.08802	2014.275054
333.195665	2018.277771
333.573631	2022.282714
334.51232	2026.296189
334.917357	2030.286136
335.107599	2034.295627
335.451781	2038.297177
335.413269	2042.305945
335.610703	2046.30259
335.764741	2050.296133
336.333412	2054.306755
336.574471	2058.318463
337.361518	2062.304573
337.924024	2066.314773
337.937424	2070.322253
338.149688	2074.321335
338.570078	2078.324199
340.063164	2082.311178
340.914838	2086.344956
341.442167	2090.318587
341.704857	2094.337936
342.109779	2098.333933
342.278654	2102.344067
342.953889	2106.337879
343.059056	2110.338671
343.313699	2114.350812
343.602602	2118.368183
344.312879	2122.347514
344.522833	2126.361945
345.043008	2130.35146
345.211719	2134.37579
345.580996	2138.354661
345.952068	2142.3695
346.21117	2146.364198
346.606617	2150.379362
347.074493	2154.370835
347.654096	2158.382642
348.165658	2162.377011
349.109299	2166.377881
350.056783	2170.382245
350.571902	2174.379135
351.579235	2178.402272
352.346521	2182.383308
352.645266	2186.403948
352.838893	2190.392815
352.980631	2194.407613
353.326679	2198.40576
353.544174	2202.395207
353.86894	2206.413474
354.451016	2210.420123
354.905097	2214.40935
354.969247	2218.417113
355.336291	2222.417583
355.632594	2226.425116
355.895909	2230.421083
356.804027	2234.419931
357.393504	2238.424454
357.824541	2242.451333
358.169511	2246.430928
358.47262	2250.450102
358.844297	2254.431857
358.900772	2258.44484
358.909368	2262.447825
359.399433	2266.445632
359.793558	2270.451982
359.84664	2274.463835
360.130155	2278.446395
360.335341	2282.460346
361.56961	2286.455919
362.418831	2290.464125
363.377236	2294.465457
363.69291	2298.46338
364.092524	2302.470811
364.599651	2306.481759
364.621789	2310.475083
364.982182	2314.484417
365.268834	2318.47321
365.574837	2322.499403
365.722522	2326.482739
365.983803	2330.490146
366.46295	2334.474362
367.279133	2338.511431
367.687699	2342.497388
368.610635	2346.502882
369.037871	2350.496139
369.402691	2354.507378
369.905645	2358.512294
369.876402	2362.498407
369.893498	2366.510346
370.043575	2370.531727
370.652741	2374.516664
371.608033	2378.528218
372.059976	2382.515333
372.094301	2386.540843
372.437594	2390.525881
372.839114	2394.524006
374.183926	2398.533018
374.923953	2402.543744
375.186568	2406.531718
375.336218	2410.559022
375.472999	2414.531819
375.704034	2418.561041
375.928708	2422.542327
376.086821	2426.550357
376.703751	2430.548935
377.332975	2434.56861
377.964521	2438.56057
378.236422	2442.560608
379.062049	2446.565169
379.153325	2450.571801
379.310362	2454.585427
379.800679	2458.555632
380.08269	2462.574042
380.144633	2466.578835
381.103004	2470.591505
381.265135	2474.569287
381.740671	2478.584529
381.917841	2482.591595
382.016649	2486.592407
382.093022	2490.58881
382.484814	2494.593699
382.688742	2498.593555
382.698368	2502.614363
382.834516	2506.597818
383.249672	2510.611121
384.413275	2514.604626
384.813945	2518.620902
385.168785	2522.602535
386.062803	2526.612841
387.013292	2530.603086
387.591421	2534.640821
387.71501	2538.611193
388.11986	2542.639477
389.018552	2546.617105
389.646422	2550.630011
389.890589	2554.633603
390.047973	2558.635786
390.109197	2562.631593
390.229997	2566.648556
390.423595	2570.646936
391.0992	2574.637907
391.259732	2578.650764
391.606078	2582.653746
391.753923	2586.656151
391.946043	2590.649845
392.260703	2594.656469
392.536943	2598.655278
393.240378	2602.667464
393.73872	2606.668197
394.01981	2610.664232
394.191477	2614.674895
394.216832	2618.663589
394.443164	2622.678355
394.713321	2626.67398
394.823139	2630.682286
395.051541	2634.665521
395.09396	2638.722988
395.418514	2642.667356
395.774508	2646.705901
396.017823	2650.696109
396.476509	2654.691834
397.958724	2658.705743
398.442554	2662.694412
398.72124	2666.705133
398.942645	2670.724291
399.005674	2674.704294
399.474797	2678.705642
399.611751	2682.725506
400.036238	2686.703363
400.338486	2690.72046
400.64724	2694.720806
400.885894	2698.723112
400.933569	2702.714674
401.247055	2706.743534
401.463742	2710.72966
402.018002	2714.734537
402.91485	2718.732558
403.246263	2722.7434
403.874073	2726.74417
404.334337	2730.735852
404.833907	2734.744718
404.963757	2738.739931
405.15222	2742.764176
405.270229	2746.739907
405.628094	2750.75724
406.017956	2754.763225
406.621621	2758.751188
407.466096	2762.768054
407.67682	2766.758739
407.962518	2770.760404
408.256005	2774.791347
408.652638	2778.764381
408.895462	2782.773808
409.571046	2786.779813
410.22095	2790.778604
410.562746	2794.78875
410.869813	2798.773131
411.118166	2802.794205
411.388022	2806.793528
411.555507	2810.809221
411.799004	2814.786823
412.372238	2818.794041
412.43082	2822.795267
412.597889	2826.805149
413.030287	2830.80378
413.817682	2834.802166
414.359299	2838.814272
415.015751	2842.806492
415.345392	2846.821655
416.490715	2850.822496
417.13708	2854.820707
417.406227	2858.823534
418.059208	2862.832624
418.521677	2866.819678
419.120821	2870.821393
419.330683	2874.834472
419.752671	2878.842528
420.169478	2882.843581
420.378517	2886.825786
420.566059	2890.843724
420.678747	2894.842881
420.978487	2898.845025
421.445868	2902.848859
421.750384	2906.848528
422.203189	2910.845613
422.750532	2914.851734
423.148816	2918.876579
423.34741	2922.856163
423.556836	2926.869921
423.761383	2930.856018
424.191329	2934.876959
424.595462	2938.863155
425.092034	2942.868058
425.406829	2946.878002
425.680932	2950.882696
425.902952	2954.889741
426.035779	2958.871953
426.423644	2962.885124
426.945711	2966.886397
427.192051	2970.895879
427.47641	2974.886457
427.676374	2978.890896
427.79352	2982.89724
428.210158	2986.890292
428.584549	2990.914627
429.166198	2994.903056
429.653062	2998.915915
429.804891	3002.907297
430.362914	3006.902299
431.366432	3010.92073
431.963548	3014.907868
432.423629	3018.920215
432.987775	3022.913911
433.29781	3026.936548
433.617231	3030.930078
433.911248	3034.928875
434.196706	3038.922294
435.251071	3042.932786
435.820362	3046.945373
436.43565	3050.929246
437.686467	3054.940831
438.195256	3058.935827
438.295477	3062.963839
438.335621	3066.944485
438.397256	3070.955892
438.577697	3074.948227
438.839955	3078.950967
438.888563	3082.952838
439.133433	3086.954727
439.464276	3090.962497
439.58664	3094.963979
439.678959	3098.960237
439.943796	3102.97044
440.375301	3106.969482
440.924938	3110.982129
441.211368	3114.972788
441.490486	3118.975772
441.885731	3122.985967
441.876549	3126.981397
442.09468	3130.968045
442.311768	3134.99712
442.548097	3138.987639
443.015298	3142.987316
443.22699	3147.000499
443.502594	3151.002634
444.215923	3155.000248
444.844764	3158.99501
444.996709	3163.011709
445.264628	3166.99039
445.701044	3171.006512
445.713938	3175.029933
446.151985	3179.016441
446.389233	3183.005801
446.554616	3187.023551
446.674364	3191.013606
447.202098	3195.036797
447.198587	3199.020746
447.301193	3203.024154
447.537915	3207.012063
447.783842	3211.03084
448.096482	3215.068848
448.168092	3219.030804
448.359434	3223.034872
448.725308	3227.039796
448.910615	3231.048194
449.110361	3235.044805
449.473289	3239.052635
449.622383	3243.056005
450.092918	3247.052353
450.184258	3251.069887
450.568014	3255.055641
450.815469	3259.0631
450.900398	3263.065834
451.289333	3267.059744
451.363458	3271.082519
451.770395	3275.065497
452.369975	3279.066515
452.791905	3283.077752
452.942893	3287.076511
453.254513	3291.084664
453.352899	3295.082122
454.617045	3299.098403
455.222173	3303.080789
455.452606	3307.093639
455.682349	3311.09536
455.736356	3315.096205
455.905998	3319.091011
456.46953	3323.096522
456.674665	3327.111467
456.998089	3331.10346
458.397126	3335.102993
459.034648	3339.110516
459.523599	3343.102078
460.061598	3347.123933
460.704708	3351.115483
460.991453	3355.113346
461.236987	3359.11868
461.755752	3363.112339
462.178388	3367.145472
462.31254	3371.119609
462.415318	3375.130217
462.817707	3379.135586
463.281592	3383.132724
463.482391	3387.147706
463.87927	3391.127009
464.245534	3395.146635
464.353846	3399.143341
464.72691	3403.128209
465.072852	3407.177626
465.272937	3411.141566
465.528779	3415.147387
466.214298	3419.16561
466.601135	3423.152377
466.887089	3427.156967
467.300321	3431.161224
467.669812	3435.164898
467.737085	3439.159729
468.277087	3443.18811
468.421265	3447.160426
468.807736	3451.172661
469.166673	3455.177735
469.565232	3459.175295
470.096909	3463.184846
470.45037	3467.200715
470.664741	3471.171762
471.017148	3475.201932
471.480804	3479.178871
472.302363	3483.214651
473.014843	3487.190203
473.436461	3491.193338
474.070598	3495.204844
474.27485	3499.193122
474.711454	3503.210938
474.922764	3507.207007
475.155277	3511.200932
475.252977	3515.217915
475.865543	3519.209839
476.123368	3523.228864
476.206391	3527.208604
476.3671	3531.226603
476.577649	3535.219479
476.953349	3539.241193
477.102674	3543.215756
477.492884	3547.234409
478.459864	3551.227794
478.869297	3555.229643
479.027906	3559.241385
479.191611	3563.240152
479.593464	3567.247593
480.137373	3571.242537
480.392887	3575.245333
480.472994	3579.249354
480.850185	3583.255851
480.893141	3587.246864
481.162152	3591.246499
481.494388	3595.255884
481.510216	3599.264831
481.845752	3603.266155
481.988614	3607.259628
482.562491	3611.252959
483.364168	3615.284306
483.693595	3619.266151
484.210815	3623.277103
484.31905	3627.283422
485.051602	3631.280795
485.282777	3635.270836
485.727723	3639.286007
485.867675	3643.286194
486.230799	3647.292598
486.26618	3651.271454
486.563886	3655.292958
486.857464	3659.293612
487.09647	3663.306889
487.499168	3667.289858
487.540479	3671.282901
487.919551	3675.304845
488.554474	3679.295459
489.036312	3683.329772
489.202948	3687.315303
489.426028	3691.306164
489.589325	3695.312611
489.843579	3699.317666
490.270211	3703.31927
490.697456	3707.325679
491.558686	3711.337499
491.910891	3715.322449
492.184309	3719.314697
492.650919	3723.350499
492.705938	3727.318901
493.025592	3731.330979
493.283175	3735.334498
493.849001	3739.346156
493.993132	3743.350055
494.561511	3747.329745
495.02245	3751.345369
495.426082	3755.353988
495.86102	3759.349102
496.152632	3763.362528
496.338993	3767.35683
496.764553	3771.362533
497.038481	3775.361382
497.36982	3779.364411
497.63876	3783.356034
498.112866	3787.382486
498.245163	3791.364738
498.685547	3795.375035
499.057404	3799.361113
499.220247	3803.374464
499.540874	3807.39939
499.611306	3811.368453
499.859473	3815.395356
500.59045	3819.371891
501.016513	3823.402496
501.310866	3827.385689
501.63911	3831.392981
501.791166	3835.388823
502.149	3839.392048
502.54607	3843.404366
502.622229	3847.439735
503.138081	3851.409066
503.544772	3855.409697
503.928082	3859.415612
504.227945	3863.408697
504.603146	3867.42016
505.034011	3871.408061
505.424532	3875.419269
506.018933	3879.428392
506.447654	3883.424224
506.891376	3887.42976
507.138008	3891.422257
507.391844	3895.422311
507.859102	3899.435099
508.029605	3903.448344
508.473413	3907.425462
508.669638	3911.439548
509.030093	3915.436565
509.222433	3919.428807
509.253562	3923.443967
509.609993	3927.449508
509.852726	3931.456896
509.908637	3935.449279
510.010687	3939.445595
510.104185	3943.466163
510.390189	3947.454131
510.451856	3951.470967
510.708605	3955.463139
511.344476	3959.459034
511.303089	3963.462493
511.492466	3967.479312
511.969982	3971.476915
512.086161	3975.468626
512.459405	3979.473962
513.48399	3983.487224
514.006864	3987.476343
514.565509	3991.488736
514.714019	3995.494436
515.003004	3999.484409
515.366833	4003.496824
515.778991	4007.473742
516.057312	4011.485571
516.47702	4015.515105
516.657075	4019.507436
516.899675	4023.495188
517.407194	4027.512282
517.670469	4031.497121
517.844239	4035.529325
518.27778	4039.492286
518.490898	4043.512017
518.701523	4047.511344
518.99557	4051.516296
519.528533	4055.514486
520.265762	4059.542749
520.62552	4063.514903
521.173899	4067.529222
521.301516	4071.530045
521.691661	4075.52186
522.319141	4079.53678
522.844302	4083.534192
523.09804	4087.534817
523.80901	4091.548077
524.337154	4095.546641
524.478315	4099.561165
524.799341	4103.533417
525.413972	4107.543764
525.974359	4111.569622
526.365598	4115.566492
526.629834	4119.536168
526.702789	4123.563806
527.039778	4127.546162
527.180955	4131.571605
527.65989	4135.561979
527.999818	4139.576349
528.170461	4143.575204
528.338602	4147.572688
528.688547	4151.572183
528.935693	4155.570242
529.171327	4159.583513
529.70634	4163.588861
529.887238	4167.573664
530.015532	4171.573649
530.315357	4175.595253
530.565817	4179.580422
530.827821	4183.587608
530.974597	4187.609331
531.301177	4191.593088
531.677433	4195.590096
532.101209	4199.612389
532.3072	4203.598862
532.687488	4207.616825
533.182539	4211.598446
533.551735	4215.604338
533.86099	4219.614051
534.067265	4223.602432
534.24772	4227.622376
534.529906	4231.630554
534.911487	4235.618745
535.353077	4239.628764
535.486611	4243.632136
535.784174	4247.621086
535.962626	4251.634417
536.131238	4255.635544
536.192399	4259.627956
536.650081	4263.653453
536.886192	4267.636209
537.193695	4271.635924
537.150801	4275.643899
537.306262	4279.645178
537.345119	4283.637483
537.834782	4287.664766
537.813047	4291.653379
538.248426	4295.661909
539.070893	4299.652022
539.506282	4303.657441
539.674432	4307.652066
539.864411	4311.676823
540.287012	4315.67325
540.747339	4319.667814
541.164507	4323.676921
541.678293	4327.676243
541.869073	4331.658782
541.947007	4335.680652
542.262692	4339.683168
542.606413	4343.685826
542.874777	4347.676616
543.145119	4351.682621
543.370359	4355.691866
543.687144	4359.712945
543.953113	4363.699262
544.512975	4367.691406
544.869629	4371.702926
545.244899	4375.707375
545.656678	4379.697962
546.136487	4383.718338
546.339633	4387.689789
546.704169	4391.707421
546.891466	4395.710582
547.17733	4399.713178
547.387898	4403.715745
547.594711	4407.717509
547.717443	4411.72472
548.134654	4415.73538
548.287384	4419.699403
548.542202	4423.741364
548.901401	4427.723156
549.393442	4431.744719
549.551961	4435.722085
549.694046	4439.733733
549.913698	4443.743317
550.043854	4447.732742
550.320757	4451.735403
550.693632	4455.751489
551.076126	4459.75667
551.333431	4463.740132
551.5317	4467.747529
551.813382	4471.779203
551.974478	4475.732671
552.113091	4479.745329
552.347707	4483.760701
553.145614	4487.779966
553.488241	4491.745985
553.674052	4495.77906
554.319537	4499.781822
554.571884	4503.764247
555.28922	4507.791232
555.703081	4511.762335
556.420075	4515.775125
556.92152	4519.793406
556.91751	4523.766937
557.131881	4527.786279
557.36951	4531.793075
557.872123	4535.759243
558.154699	4539.830162
558.243684	4543.797778
558.456649	4547.771784
558.342706	4551.809284
558.633715	4555.799122
559.076795	4559.793926
559.520608	4563.801418
559.779702	4567.799143
560.009001	4571.804647
560.307554	4575.816846
560.620745	4579.799471
560.716475	4583.830717
561.086449	4587.834172
561.342821	4591.823759
561.607592	4595.824124
561.825594	4599.821501
561.698344	4603.814497
562.175222	4607.848066
562.474036	4611.821511
563.024828	4615.83431
563.140358	4619.833557
563.520126	4623.832087
564.097205	4627.834317
564.004905	4631.867441
564.31224	4635.826838
564.580634	4639.855955
565.004547	4643.864705
565.4051	4647.823707
565.756189	4651.859676
566.208614	4655.854709
566.19924	4659.850024
566.867835	4663.873276
567.284447	4667.858641
567.781452	4671.863652
567.998855	4675.884239
567.981873	4679.862049
568.180709	4683.873043
568.418458	4687.871979
568.574558	4691.868732
568.79616	4695.87046
568.991892	4699.872282
569.63361	4703.894375
569.53018	4707.864
569.973864	4711.898248
570.200741	4715.875864
570.196403	4719.878671
570.301888	4723.918242
570.508319	4727.886426
570.923499	4731.89982
571.062024	4735.909582
571.409594	4739.898021
571.619578	4743.902442
571.932344	4747.930138
572.242805	4751.891504
572.522668	4755.919107
572.882556	4759.896284
572.873541	4763.916313
573.176752	4767.917487
573.16994	4771.92588
573.363919	4775.917941
573.353736	4779.926071
574.11566	4783.928116
574.54709	4787.936099
574.893801	4791.938016
575.021616	4795.920919
575.167586	4799.938117
575.479562	4803.940097
575.401853	4807.92736
575.740971	4811.938861
576.218097	4815.970149
577.004262	4819.937059
577.406888	4823.959759
577.463788	4827.943724
577.621105	4831.952235
577.80866	4835.949772
578.067055	4839.971837
578.650054	4843.943787
578.991741	4847.966147
579.083106	4851.959151
579.193073	4855.965654
579.370354	4859.967691
579.551434	4863.971954
580.101989	4867.96766
580.305401	4871.97876
580.45183	4875.9716
580.894831	4879.976601
581.17836	4883.986811
580.933523	4887.977528
581.235945	4891.984899
581.430771	4895.983751
581.646566	4899.978035
581.91477	4904.00625
582.296378	4908.001708
582.455258	4911.986924
582.839968	4916.008201
583.459431	4919.997409
583.7767	4924.017557
584.529542	4927.996053
585.159095	4932.026291
585.641401	4936.017167
585.961231	4940.002483
586.23415	4944.016444
586.202127	4948.014297
586.540782	4952.035494
586.679936	4956.012488
587.063488	4960.034315
587.384661	4964.021878
587.746826	4968.026765
587.931081	4972.032577
588.211845	4976.016941
588.336633	4980.045214
588.790312	4984.039939
588.793971	4988.026475
589.189388	4992.043664
589.436977	4996.054296
590.094726	5000.047895
590.478054	5004.047823
590.812181	5008.05298
590.881736	5012.041824
591.287367	5016.074699
591.394729	5020.0507
591.851289	5024.048219
592.161969	5028.06482
592.232649	5032.06388
592.541667	5036.056334
592.710013	5040.082072
593.03772	5044.05945
593.152092	5048.07531
593.3992	5052.069844
593.618021	5056.067116
594.048392	5060.091187
594.182102	5064.068303
594.453611	5068.070591
594.802164	5072.08446
595.062683	5076.08889
595.291878	5080.080833
595.492556	5084.08775
595.613541	5088.083267
595.907923	5092.105044
595.963495	5096.097811
596.02637	5100.081083
596.050538	5104.104248
596.443222	5108.117094
596.987768	5112.091938
597.008485	5116.109215
597.414916	5120.100263
597.677699	5124.120709
598.18575	5128.121163
598.266262	5132.118605
598.650341	5136.109254
598.804625	5140.133251
598.923243	5144.11466
598.957815	5148.122327
599.185651	5152.133613
599.380216	5156.123008
599.704614	5160.127709
599.963427	5164.138737
600.233468	5168.148623
600.674372	5172.129896
600.746033	5176.139352
601.228689	5180.15789
601.575141	5184.133454
602.07544	5188.164689
602.479376	5192.135967
602.678109	5196.14949
602.827489	5200.153927
602.975849	5204.161494
603.860359	5208.169406
603.996402	5212.155753
604.427413	5216.175197
604.419533	5220.154136
604.368559	5224.157809
604.484067	5228.164175
604.926553	5232.196521
604.921308	5236.164258
605.157478	5240.159402
605.15574	5244.194601
605.390849	5248.19052
605.528087	5252.179624
606.14821	5256.189738
606.572768	5260.192515
607.008212	5264.179365
607.040059	5268.196147
607.375239	5272.203525
607.58382	5276.177641
607.898335	5280.200538
608.100863	5284.201356
608.445017	5288.188103
608.424164	5292.236067
608.673493	5296.196915
608.603588	5300.200173
608.865455	5304.22076
609.017491	5308.207283
609.939911	5312.23245
609.938573	5316.214454
610.238288	5320.208699
610.686766	5324.235059
611.017304	5328.232227
611.282914	5332.209439
611.425469	5336.225011
611.412898	5340.242229
611.736069	5344.237886
612.426032	5348.236289
612.611515	5352.250343
613.029761	5356.220987
613.380682	5360.264502
613.702519	5364.239621
613.889003	5368.240852
613.928678	5372.249605
613.817403	5376.232846
614.375592	5380.269152
614.691959	5384.252785
614.978643	5388.271175
614.960649	5392.233034
615.275812	5396.264649
615.51142	5400.270924
615.74536	5404.270857
615.844452	5408.25725
615.959024	5412.27075
616.082655	5416.267271
616.395897	5420.281173
616.701761	5424.280983
617.022569	5428.293766
617.216093	5432.260987
617.41658	5436.267517
617.856304	5440.305275
618.276822	5444.289627
618.524388	5448.30811
618.886236	5452.274126
619.079279	5456.289192
619.346447	5460.29338
619.908232	5464.302913
620.478538	5468.298695
620.692002	5472.315285
621.118201	5476.284658
621.226643	5480.318212
621.305545	5484.290344
621.540176	5488.333013
621.9138	5492.308179
621.999851	5496.321929
622.162836	5500.304014
622.416925	5504.332217
622.344543	5508.309791
622.561143	5512.32515
623.16188	5516.341663
623.375736	5520.324166
623.903768	5524.328064
623.791939	5528.351381
624.228111	5532.304662
624.710812	5536.372642
624.62559	5540.32681
625.002212	5544.330048
625.268084	5548.348751
625.418512	5552.341354
625.621127	5556.361357
626.078055	5560.33253
626.472852	5564.363649
626.692995	5568.353993
626.904866	5572.355617
626.97664	5576.343586
627.139493	5580.353279
627.128958	5584.382182
627.347169	5588.374162
627.471598	5592.34567
627.435295	5596.372994
627.594112	5600.363409
627.557855	5604.375041
627.938476	5608.378495
628.495537	5612.389078
629.079511	5616.373206
629.324994	5620.379398
629.432326	5624.397403
629.691095	5628.390874
629.951833	5632.386556
630.065522	5636.389355
630.37517	5640.412679
630.627257	5644.385438
630.95219	5648.387936
631.243058	5652.408799
631.7482	5656.399048
631.887665	5660.401028
632.255588	5664.413331
632.650184	5668.415223
632.667704	5672.406258
632.967725	5676.442993
633.204145	5680.386923
633.300053	5684.423479
633.41078	5688.449804
633.549591	5692.396686
633.667276	5696.432172
633.830394	5700.434083
633.991414	5704.444754
634.146901	5708.404975
634.530517	5712.43763
634.53732	5716.436085
634.670577	5720.419621
634.81355	5724.440139
635.190426	5728.455132
635.532324	5732.423434
635.621933	5736.455753
636.07675	5740.456531
636.675014	5744.446324
636.899011	5748.452736
637.055984	5752.463436
636.988851	5756.44214
637.125451	5760.467399
637.724937	5764.451407
637.983711	5768.459368
638.342342	5772.470237
638.98119	5776.453081
639.491612	5780.465842
639.721659	5784.462923
640.010869	5788.474285
640.295569	5792.46343
640.601321	5796.484726
640.876518	5800.494063
641.126194	5804.467581
641.45471	5808.480492
641.707338	5812.49774
642.047664	5816.492007
642.141538	5820.48353
642.08724	5824.503428
642.363355	5828.47995
642.495084	5832.506966
642.678018	5836.503354
642.763614	5840.476369
642.9646	5844.525342
643.20082	5848.488056
643.455224	5852.491329
643.406114	5856.51626
643.537884	5860.51346
643.451663	5864.495539
643.719765	5868.525515
643.844936	5872.522777
644.427619	5876.519645
644.655455	5880.514896
645.17926	5884.514692
645.334211	5888.525332
645.619315	5892.540455
645.860174	5896.530368
646.243784	5900.532887
646.407605	5904.524986
646.928946	5908.543312
647.306467	5912.53612
647.790547	5916.529741
648.123121	5920.554929
648.303618	5924.54465
648.774552	5928.552639
649.145784	5932.554247
649.539131	5936.538765
649.682578	5940.561812
650.033089	5944.565402
650.128229	5948.552833
650.547994	5952.579077
650.519773	5956.545827
650.762529	5960.562053
650.901212	5964.583388
651.262077	5968.556133
651.234699	5972.563024
651.470745	5976.567352
651.773626	5980.582263
651.99465	5984.56789
652.251626	5988.581084
652.369387	5992.591366
652.565698	5996.592975
652.703618	6000.595732
652.957851	6004.591924
653.096912	6008.599856
653.070382	6012.580846
653.444078	6016.612357
653.765679	6020.601609
654.103537	6024.599576
654.275423	6028.601403
654.59132	6032.597316
654.563382	6036.597921
654.856923	6040.610948
655.194157	6044.624103
655.158581	6048.617865
655.563655	6052.611373
655.841078	6056.601568
656.219154	6060.634056
656.612659	6064.630146
657.082178	6068.611891
657.353535	6072.632738
657.438896	6076.619651
657.780234	6080.630045
657.783927	6084.621098
658.319194	6088.654442
658.840418	6092.631447
659.516705	6096.643893
659.573977	6100.664222
659.729915	6104.618769
659.735842	6108.652165
660.040629	6112.641823
660.045546	6116.658516
660.220676	6120.639139
660.488914	6124.655753
660.753796	6128.667011
661.078731	6132.63713
661.263102	6136.668445
661.433429	6140.659917
661.485606	6144.660184
661.800026	6148.666855
661.934146	6152.66754
662.232145	6156.67193
662.261677	6160.65729
662.449512	6164.674239
662.603881	6168.685946
662.919982	6172.677818
663.124648	6176.672465
663.999871	6180.692831
664.44707	6184.695729
664.955151	6188.686174
665.037073	6192.679206
665.696843	6196.705499
666.163055	6200.681641
666.434942	6204.702338
666.572649	6208.712248
666.539584	6212.671645
667.138379	6216.725463
667.510085	6220.68158
667.719025	6224.712569
668.033161	6228.701232
668.107167	6232.715835
668.343183	6236.714184
668.334633	6240.691728
668.512073	6244.737015
668.687604	6248.712259
668.725046	6252.710435
668.896567	6256.737547
669.130809	6260.717321
669.263535	6264.717365
669.633998	6268.734274
670.01406	6272.731229
670.40805	6276.742263
670.521759	6280.738192
671.439743	6284.764499
671.707401	6288.717617
672.12088	6292.768118
673.115242	6296.755114
673.392917	6300.741211
673.682825	6304.744808
674.037009	6308.744519
674.162268	6312.776545
674.533083	6316.75666
675.044643	6320.759341
675.165918	6324.770495
675.303142	6328.732458
675.220218	6332.755642
675.477394	6336.78251
675.587323	6340.769635
675.836995	6344.76057
675.985459	6348.765633
676.093441	6352.791664
676.091512	6356.74609
676.262797	6360.787515
676.620152	6364.806325
677.145518	6368.783685
677.362741	6372.799899
677.777148	6376.781531
678.447066	6380.797376
678.792273	6384.786755
679.212131	6388.798153
679.320059	6392.794111
679.552528	6396.802684
679.882266	6400.793784
680.240227	6404.818919
680.236577	6408.817147
680.275707	6412.798603
680.500105	6416.799758
680.841888	6420.822266
680.848776	6424.808231
681.015885	6428.796674
681.253958	6432.832246
681.562505	6436.821016
681.752803	6440.835741
682.027723	6444.82524
682.146786	6448.818974
682.521383	6452.838959
682.775322	6456.836528
682.978544	6460.830868
683.454751	6464.815361
683.394973	6468.831132
683.551917	6472.851546
684.038155	6476.848592
684.526953	6480.82707
684.967572	6484.871575
685.297076	6488.844197
685.685703	6492.84434
685.991458	6496.864456
686.830252	6500.871945
686.750826	6504.837325
687.050783	6508.847402
687.135288	6512.862853
687.425768	6516.868472
687.719282	6520.85802
687.94037	6524.854509
688.098621	6528.88924
688.487743	6532.884858
689.087678	6536.863888
689.624454	6540.891684
689.813402	6544.890851
690.18032	6548.85323
690.416847	6552.857802
690.702605	6556.911823
690.874813	6560.870603
690.814367	6564.900434
691.349084	6568.892005
691.417225	6572.870282
691.849478	6576.893328
692.055269	6580.882024
692.268602	6584.910388
692.288085	6588.905391
692.590878	6592.885419
692.731327	6596.928294
692.973766	6600.889377
692.95223	6604.908094
693.241363	6608.913053
693.503461	6612.920792
693.918036	6616.910948
694.271212	6620.925474
694.368338	6624.909314
694.599181	6628.929652
694.727756	6632.900426
694.915454	6636.930723
695.123001	6640.928279
695.135622	6644.930512
695.49514	6648.934552
695.658877	6652.938871
695.933809	6656.924429
696.059648	6660.939593
696.34497	6664.93034
696.449434	6668.940704
696.424784	6672.953599
696.69038	6676.935506
696.856749	6680.929909
696.929952	6684.971121
697.187581	6688.959238
697.197071	6692.945034
697.671894	6696.95728
698.101923	6700.966803
698.652443	6704.957818
699.093593	6708.985876
699.723188	6712.953954
700.375543	6716.979095
700.772669	6720.988505
701.009484	6724.945283
701.088453	6728.975452
701.521436	6732.996073
701.733434	6736.939411
702.035574	6741.008593
702.378935	6744.98686
702.533434	6748.971058
702.705584	6752.9814
702.724525	6756.98039
703.028497	6761.001003
702.963134	6764.999491
703.174639	6768.97887
703.375149	6772.993799
703.327019	6776.996882
703.731163	6781.011635
704.301012	6785.014851
704.342127	6788.993492
704.487328	6793.010164
704.665988	6797.017864
704.886895	6801.010514
705.045461	6805.020323
705.009962	6809.020555
705.282153	6813.004201
705.571442	6817.005275
706.032525	6821.020749
706.298138	6825.029258
706.665102	6829.040498
707.002837	6833.03121
707.167286	6837.039168
707.327848	6841.04203
707.470248	6845.028895
707.722827	6849.046226
708.113975	6853.025123
708.753267	6857.052795
709.372861	6861.062764
710.05347	6865.031366
710.523482	6869.073565
710.639311	6873.037271
711.000675	6877.052527
711.050129	6881.045106
711.299387	6885.061797
711.637518	6889.06513
712.051296	6893.047759
712.253434	6897.06638
712.376271	6901.038388
712.539511	6905.096214
712.638001	6909.042417
712.618028	6913.085979
712.984839	6917.067811
713.588766	6921.097118
713.981368	6925.089027
714.355713	6929.064821
714.791397	6933.084112
715.032063	6937.090321
715.150896	6941.08024
715.405396	6945.083687
715.97186	6949.091477
716.188744	6953.092147
716.305918	6957.10555
716.469424	6961.090502
716.86602	6965.116081
717.132177	6969.135879
717.502294	6973.091569
717.790247	6977.136631
718.192362	6981.089047
718.236868	6985.109228
718.507263	6989.113494
719.076352	6993.129445
719.312247	6997.120134
719.20079	7001.115715
719.685945	7005.136299
719.942616	7009.106615
720.126215	7013.122492
720.607752	7017.144849
720.871975	7021.102631
721.117302	7025.128749
722.011447	7029.152702
722.122366	7033.131512
722.178239	7037.120187
722.397855	7041.157721
722.609602	7045.120468
722.759687	7049.147094
723.140456	7053.132998
723.397477	7057.163419
723.701438	7061.155415
724.043119	7065.147622
724.301591	7069.159932
724.825316	7073.17037
725.217931	7077.141981
725.345096	7081.181082
725.637522	7085.148216
725.628554	7089.16838
726.072029	7093.160324
726.207221	7097.157141
726.331931	7101.179305
726.577458	7105.171025
726.758115	7109.187743
726.863661	7113.174805
727.307672	7117.196494
727.684563	7121.190563
728.102147	7125.173188
728.663642	7129.199539
728.781709	7133.188131
729.153964	7137.185911
729.367277	7141.204565
729.809485	7145.20098
730.127162	7149.213664
730.357728	7153.214424
730.595955	7157.198334
731.046394	7161.213329
731.515357	7165.203609
731.451161	7169.198732
731.632374	7173.206705
731.834519	7177.222733
731.837828	7181.197387
732.029029	7185.216297
732.138495	7189.229649
732.412832	7193.204697
732.352166	7197.259578
732.588687	7201.202121
733.049666	7205.220214
733.352105	7209.237996
733.698948	7213.24353
733.780465	7217.227517
733.96693	7221.251086
734.313597	7225.235394
734.488814	7229.21889
734.526339	7233.253652
734.640836	7237.244094
734.917685	7241.264859
734.969842	7245.223759
735.1397	7249.25935
735.193642	7253.265341
735.352557	7257.25525
735.442299	7261.243384
735.575558	7265.274175
736.471165	7269.276637
736.846119	7273.22595
736.906232	7277.262669
737.248866	7281.290363
737.524775	7285.271394
737.661726	7289.24397
738.02984	7293.273107
738.158465	7297.275212
738.436127	7301.281927
738.693068	7305.27446
738.934472	7309.291554
739.279031	7313.288061
739.737874	7317.295605
740.110792	7321.297123
740.793412	7325.286223
741.150807	7329.291453
741.413532	7333.282959
741.775451	7337.321933
742.179084	7341.297962
742.492423	7345.295368
742.717833	7349.296696
742.822588	7353.306426
743.079519	7357.318347
743.244418	7361.288823
743.5728	7365.33016
743.680523	7369.298256
744.059852	7373.33057
744.32047	7377.302063
744.555506	7381.321872
744.923725	7385.332328
745.124231	7389.300596
745.28563	7393.345413
745.714975	7397.326131
745.887413	7401.336562
746.033509	7405.327798
746.194705	7409.328022
746.526992	7413.35261
746.706608	7417.314916
746.988353	7421.357668
747.257788	7425.344631
747.243732	7429.326858
747.932558	7433.383029
748.321517	7437.336609
748.654136	7441.346892
749.190011	7445.369899
749.493958	7449.366644
749.79422	7453.339316
749.969461	7457.34684
750.169334	7461.381391
750.701093	7465.363579
750.767008	7469.361313
751.060355	7473.374593
751.466524	7477.37251
751.928984	7481.394946
752.336344	7485.381242
752.978908	7489.377969
753.055769	7493.372443
753.307227	7497.377955
753.426941	7501.395668
753.653395	7505.36987
753.82483	7509.393479
754.311049	7513.412841
754.419147	7517.368305
754.826187	7521.397295
754.852939	7525.393887
755.267165	7529.388065
755.337417	7533.433195
755.851489	7537.385699
756.389978	7541.404677
756.654802	7545.41928
756.912597	7549.400156
757.1785	7553.408589
757.129465	7557.40812
757.572552	7561.4329
757.692742	7565.420387
757.788427	7569.402383
758.036072	7573.42679
758.143139	7577.420704
758.519313	7581.428826
758.740022	7585.455489
758.95012	7589.421945
759.274633	7593.420142
759.39384	7597.46206
759.418082	7601.412282
759.720324	7605.447555
760.498482	7609.482022
761.114297	7613.41842
761.521006	7617.445287
762.014435	7621.47016
762.422628	7625.419545
762.720954	7629.475532
762.921399	7633.447917
763.246136	7637.435754
763.550617	7641.463348
763.847877	7645.472953
764.152435	7649.442566
764.526115	7653.463109
764.715219	7657.458413
764.804022	7661.470439
765.104539	7665.502567
765.238236	7669.467711
765.490048	7673.451959
766.057821	7677.505025
766.184097	7681.471164
766.40967	7685.466042
767.129508	7689.526043
767.509601	7693.480562
767.651385	7697.463872
768.054301	7701.47057
768.088899	7705.485445
768.17589	7709.507352
768.4154	7713.49713
768.69113	7717.489519
768.690077	7721.505146
768.848245	7725.487044
769.227207	7729.513529
769.271309	7733.491669
769.330253	7737.500787
769.326328	7741.510097
769.501962	7745.514995
769.859243	7749.542137
770.148038	7753.499202
770.472188	7757.490131
770.678297	7761.517676
770.899076	7765.552625
771.321607	7769.508486
771.7245	7773.538512
771.957956	7777.539338
771.993039	7781.520973
772.451804	7785.522602
772.753699	7789.544867
773.169409	7793.542016
773.41762	7797.53839
773.77047	7801.532965
774.160241	7805.553102
774.308169	7809.528154
774.744395	7813.575393
775.059972	7817.533599
775.152088	7821.565337
775.303221	7825.547555
775.582041	7829.553826
775.906019	7833.553737
776.08767	7837.5443
776.298883	7841.588703
776.352022	7845.573448
776.425792	7849.538245
776.832462	7853.577804
776.82135	7857.590227
776.898523	7861.544883
777.097307	7865.573048
777.433672	7869.60307
777.852982	7873.5885
778.109755	7877.572987
778.178536	7881.562897
778.3758	7885.60008
779.273833	7889.612774
779.792278	7893.600734
779.973991	7897.55441
780.3534	7901.608538
780.626043	7905.585908
781.091026	7909.602379
781.394456	7913.594844
781.78029	7917.626849
782.026516	7921.626292
782.110202	7925.561332
782.427741	7929.619977
782.573429	7933.586911
782.939184	7937.615584
783.295853	7941.621885
783.534487	7945.631045
783.859301	7949.609111
784.171208	7953.618273
784.24439	7957.61843
784.393834	7961.617666
784.854194	7965.633603
785.149272	7969.648037
785.330314	7973.632775
785.519774	7977.605506
785.37259	7981.62744
785.630621	7985.642191
785.830756	7989.637719
786.015754	7993.652725
786.24318	7997.640163
786.549098	8000.01643
786.723258	8000.000339
	
786.854326	7999.976257
787.036922	8000.006778
787.4166	8000.020516
787.472821	7999.975261
787.444699	8000.03918
787.756198	8000.009002
787.822349	8000.025829
787.997357	8000.000163
788.260328	8000.007891
788.354859	8000.006939
788.521742	8000.007793
788.728037	8000.006829
789.202976	8000.013938
789.034407	7999.987883
789.13181	7999.992853
789.35333	8000.023461
789.458573	7999.98458
789.71202	8000.003365
789.648133	8000.009643
789.92736	7999.977805
790.051431	7999.989923
789.902679	7999.989902
790.087762	8000.02633
790.348819	7999.997405
790.554168	8000.038728
790.852686	7999.952084
791.031736	7999.992052
790.967461	8000.031022
791.220349	7999.963191
791.328974	8000.001454
791.18898	7999.988413
791.383032	8000.006065
791.427471	8000.017927
791.783105	8000.001578
791.56847	7999.978915
791.797433	8000.01761
791.93869	8000.001753
792.189666	8000.008872
792.251103	8000.023535
792.371276	7999.970029
792.555927	8000.021836
792.694583	8000.005845
792.771693	7999.982831
792.743892	8000.019833
792.838449	7999.993871
792.959707	7999.996226
793.045676	7999.990988
793.245723	8000.001255
793.226382	7999.996359
793.45605	7999.99276
793.303175	8000.002144
793.438472	7999.997526
793.369425	8000.00546
793.608834	7999.998515
793.713025	8000.021159
793.939599	7999.97314
793.991067	8000.002686
794.238865	8000.009646
794.345146	7999.99391
794.62584	7999.987173
794.435485	7999.996546
794.717158	8000.016801
794.707676	7999.985471
794.977499	8000.005115
795.154563	8000.000729
795.113643	7999.994719
795.072544	8000.000246
795.036653	8000.004117
795.250732	7999.993944
795.326896	8000.013219
795.29443	7999.967231
795.382464	8000.012137
795.593357	7999.988328
795.66569	7999.999708
795.548956	7999.989786
795.747063	7999.988411
795.912628	7999.99498
796.022237	8000.010209
795.921974	7999.985739
795.938374	7999.998083
796.057461	8000.017649
796.015797	7999.986581
796.234922	7999.980519
796.067722	7999.979538
796.118768	8000.005216
796.267017	8000.003194
796.303767	8000.008889
796.273725	7999.989968
796.591421	8000.014012
796.714896	7999.983768
796.721555	7999.999458
797.024227	8000.005407
796.954075	7999.995962
797.122228	7999.99112
797.107355	7999.990302
797.201142	8000.012413
797.11256	7999.996243
797.262053	7999.980815
797.418506	8000.006161
797.279489	8000.004709
797.52112	7999.995961
797.601293	8000.011597
797.442827	7999.989895
797.562954	7999.999894
797.650543	8000.000516
797.649362	8000.011953
797.719777	7999.988593
797.865769	7999.999929
798.178666	8000.017956
798.161635	7999.997781
798.427481	7999.994134
798.589488	7999.998599
798.441494	7999.987058
798.888317	8000.004304
798.959774	7999.986772
799.046325	8000.012362
799.271925	7999.983543
799.253538	7999.997941
799.353255	8000.018437
799.555502	7999.953768
799.395759	8000.020531
799.27199	7999.994843
799.422772	7999.983332
799.366994	7999.984251
799.609996	8000.015996
799.558973	8000.005612
799.549997	7999.982002
799.551034	8000.008951
799.566128	7999.975036
799.714984	8000.011543
799.855753	7999.99759
799.804227	8000.010277
799.796738	7999.988668
799.87307	8000.000258
799.894252	7999.976281
799.948682	7999.998289
800.004407	7999.989568
799.964447	8000.000927
800.095999	7999.992273
800.111694	7999.998807
800.1216	7999.976172
800.099134	8000.017305
800.286617	7999.992293
800.25643	7999.973361
800.143796	8000.009837
800.088245	7999.999219
800.202339	8000.01276
800.23619	7999.989437
800.352742	7999.970385
800.258454	8000.009733
800.316355	8000.014598
800.369449	7999.999968
800.366299	8000.009378
800.463054	7999.973906
800.464278	8000.00279
800.535263	8000.014105
800.533537	7999.998568
800.554901	7999.978449
800.577355	8000.012278
800.628882	7999.989868
800.6556	7999.983499
800.797838	8000.010043
800.782602	8000.001506
800.802526	7999.979388
800.822432	7999.995764
800.703844	8000.041557
800.796895	7999.95585
800.882854	8000.017982
800.807524	8000.000567
800.923271	7999.993022
800.882396	8000.004334
800.810343	8000.002487
800.929993	8000.010541
800.804363	7999.97898
801.093045	8000.007315
801.024512	7999.988326
800.982157	8000.01111
800.944279	8000.018727
801.06799	7999.990421
801.24424	7999.984077
801.036912	7999.982941
801.03052	8000.013357
801.156492	8000.017889
801.18104	7999.996009
801.325624	8000.011127
801.318321	7999.976053
801.361641	7999.991714
801.291135	7999.988022
801.269391	8000.029193
801.40619	7999.990015
801.398092	7999.962599
801.624872	8000.022384
801.833412	8000.011934
801.604638	8000.013539
801.689009	7999.99475
801.726964	8000.00051
801.694781	8000.004571
801.719796	7999.955769
801.905871	8000.030774
801.915973	7999.990825
802.048773	7999.99956
801.933574	7999.991634
801.928174	8000.012477
801.888909	7999.952654
802.007329	8000.033789
801.982208	7999.980471
802.24476	8000.015159
802.273218	8000.006954
802.319297	7999.986187
802.448824	8000.010152
802.553081	7999.978917
802.480132	8000.034767
802.516337	8000.01349
802.698747	7999.96127
802.586823	8000.001632
802.707935	7999.988591
802.829019	8000.000572
802.81739	7999.994146
802.782853	7999.996161
802.920212	8000.010908
802.919101	7999.999251
802.922081	8000.005129
803.043916	8000.007525
803.01893	8000.021582
803.024061	8000.000624
802.957569	7999.975964
803.033008	8000.027933
803.054898	7999.977043
802.976965	7999.992214
803.349177	8000.005623
803.204146	8000.001928
803.276106	8000.009446
803.243885	7999.994257
803.205076	7999.974877
803.28519	8000.042487
803.302115	8000.008664
803.282349	7999.984494
803.277896	8000.011161
803.309261	7999.997333
803.369959	7999.98502
803.275455	7999.983936
803.333103	7999.99264
803.328455	8000.003898
803.508332	8000.009294
803.447309	8000.008015
803.532174	7999.985402
803.658003	8000.005328
803.703048	7999.992207
803.605077	8000.006342
803.745095	8000.001979
803.70919	7999.994298
803.729411	7999.985668
803.824557	7999.98861
803.77897	7999.980429
803.936392	8000.003914
803.879093	8000.029776
804.191263	8000.016986
804.062483	7999.975631
804.020072	7999.984938
803.935277	7999.974731
804.017842	7999.996272
804.046124	8000.030407
804.134777	8000.013764
804.165907	7999.997999
804.172992	8000.00024
804.080335	7999.993475
804.233188	7999.982076
804.189748	7999.997105
804.180778	8000.01969
804.422347	7999.951278
804.305341	7999.983679
804.307573	8000.029942
804.462746	7999.984014
804.412815	7999.994858
804.387156	8000.02428
804.470768	8000.001602
804.535941	7999.991446
804.519168	8000.013628
804.625022	7999.99595
804.464328	8000.026092
804.692713	8000.016672
804.553964	7999.990201
804.580139	7999.972254
804.576161	8000.000872
804.676181	7999.984818
804.896689	8000.015415
804.725073	7999.993019
804.590852	8000.014905
804.695772	7999.987554
804.867518	7999.973282
804.797972	7999.986961
804.902223	8000.005774
804.831472	7999.971267
804.916227	8000.033347
805.012033	8000.024774
804.872605	8000.000192
804.869176	7999.99034
804.94055	7999.984354
805.239603	7999.992062
805.16509	8000.00741
805.141899	7999.984986
805.168	        8000.00746
805.257797	7999.994727
805.255351	7999.99455
805.132093	8000.007378
805.163516	7999.974302
805.425692	7999.98973
805.366257	7999.973132
805.534618	7999.99526
805.535285	8000.001019
805.359818	7999.993823
805.552409	8000.032604
805.457165	7999.98913
805.580649	7999.987763
805.419968	8000.014056
805.689922	7999.974062
805.580954	8000.008803
805.487869	8000.00009
805.612516	7999.996859
805.627878	7999.986053
805.730318	8000.014398
805.658047	8000.004837
805.714912	8000.001951
805.870387	8000.015714
805.813258	8000.00116
805.796545	7999.971371
805.92254	8000.016334
805.793209	7999.998048
805.848484	7999.99508
805.834023	7999.969257
805.955169	7999.992795
805.96977	8000.010825
805.943306	8000.003631
805.966238	8000.006691
805.984787	8000.009525
806.032748	8000.019654
806.084233	7999.995316
805.992004	7999.990497
806.071605	8000.004187
806.188675	7999.973614
806.217959	7999.978928
806.023691	7999.991934
806.100104	8000.024709
806.206715	7999.995521
806.189659	8000.015764
806.346205	7999.977607
806.455886	8000.033279
806.339573	7999.979089
806.354584	8000.00484
806.582603	8000.005029
806.496884	8000.014022
806.40978	7999.970967
806.510164	8000.026158
806.437679	7999.991559
806.473395	8000.004906
806.582563	8000.00665
806.47345	7999.993258
806.621801	7999.989328
806.60377	8000.013371
806.645323	8000.007769
806.670075	7999.982048
806.592589	8000.008791
806.638077	8000.024568
806.662012	7999.966079
806.617449	8000.002226
806.632516	7999.993329
806.653154	8000.038622
806.528566	8000.012879
806.520764	7999.98355
806.697914	7999.998434
806.5518	8000.002379
806.738961	8000.004306
806.666193	7999.967768
806.895705	8000.016161
806.845589	7999.992343
806.747015	7999.998746
806.613082	8000.005246
806.785913	8000.046858
806.905783	7999.981779
806.932312	8000.006201
806.958452	7999.999803
806.889892	8000.005832
807.117045	7999.973252
807.004303	8000.013573
807.023717	8000.001051
807.039651	7999.992199
806.990207	8000.001143
806.991923	8000.010806
807.008163	7999.996195
806.855408	7999.997871
806.901695	8000.004064
806.965844	8000.045832
806.989946	8000.012377
806.997722	7999.960753
806.877809	7999.998778
807.091082	8000.000131
807.053546	7999.990439
807.112533	8000.018465
807.150478	7999.995351
807.060836	7999.979115
807.16149	8000.024696
807.175107	8000.017649
807.076207	7999.972058
807.199773	7999.991873
807.154449	8000.008729
807.235114	8000.00515
807.207555	8000.00945
807.090377	8000.018741
807.120307	8000.033713
807.380443	8000.006689
807.293771	7999.996381
807.184317	8000.000296
807.250225	8000.001729
807.038028	8000.017656
807.240903	7999.96842
807.329153	8000.00566
807.381627	7999.989072
807.507715	8000.003243
807.452281	8000.017651
807.262102	7999.984665
807.319566	8000.006837
807.325803	8000.01866
807.504917	7999.989371
807.469555	7999.993267
807.528971	7999.975113
807.329443	8000.007096
807.448578	8000.026683
807.452765	8000.015298
807.493299	7999.996168
807.526512	7999.97666
807.493337	7999.990294
807.49627	8000.011571
807.652302	8000.00034
807.51481	8000.004729
807.477148	8000.004656
807.564049	8000.041827
807.653586	7999.971328
807.763567	8000.023168
807.659776	8000.002349
807.730904	7999.998277
807.799317	7999.99984
807.760244	7999.988143
807.867615	8000.010972
807.947339	7999.999644
807.68659	8000.013059
807.801634	8000.015109
807.843064	7999.986399
808.042275	8000.002427
807.922326	8000.003874
807.806877	8000.015178
807.983028	7999.978036
807.789989	7999.998803
807.940172	8000.01037
807.940672	7999.975694
807.939536	8000.004462
807.997369	7999.999702
807.848854	8000.016997
808.12073	8000.027158
808.177739	7999.976153
808.027237	8000.045323
808.095253	7999.95446
808.001697	8000.022725
808.003075	7999.984244
808.067479	8000.037577
808.127934	7999.961724
808.154614	8000.032358
808.076308	7999.962803
808.227243	8000.012912
808.055427	8000.025151
808.131947	7999.95783
808.088372	8000.001728
808.213526	8000.006226
808.200612	7999.978556
808.275392	8000.009325
808.16174	7999.999546
808.119115	7999.983815
808.266464	8000.008712
808.203002	8000.001529
808.373535	8000.006449
808.262064	8000.008333
808.305628	8000.006686
808.249386	8000.001802
808.302256	7999.981384
808.543337	8000.01113
808.437676	8000.003689
808.299497	8000.011893
808.487025	8000.004216
808.350151	7999.995161
808.430763	8000.008905
808.436328	7999.987967
808.444696	7999.99605
808.505959	7999.972216
808.345468	8000.031244
808.518218	8000.003552
808.488978	7999.990438
808.573637	8000.004392
808.473789	7999.985701
808.664353	7999.993583
808.594951	8000.007269
808.419896	7999.975062
808.554075	8000.02238
808.41001	8000.001402
808.346309	8000.009608
808.539362	7999.990666
808.51659	8000.037566
808.669048	7999.997273
808.549884	7999.962182
808.661877	8000.017978
808.700597	7999.992978
808.616797	7999.988593
808.71501	8000.012875
808.638204	7999.9896
808.692273	8000.019298
808.834298	7999.988092
808.627609	7999.998527
808.603723	7999.999166
808.782059	8000.00449
808.770141	7999.998048
808.788058	8000.002774
808.845988	7999.99802
808.750824	8000.023849
808.964052	7999.992476
808.876296	7999.989811
808.870428	8000.022185
808.730292	7999.976382
808.924057	8000.009457
808.817017	8000.01157
808.957019	7999.980259
808.795058	7999.983381
808.71469	8000.023452
809.026507	7999.983702
808.83637	8000.000768
808.905405	8000.01969
809.13127	7999.983195
808.931234	7999.992048
809.117956	7999.995881
808.84886	7999.997312
809.011537	8000.019153
808.931995	7999.976485
809.042221	8000.011014
809.040842	8000.024368
808.985582	7999.981031
809.108133	8000.018123
809.174258	7999.979139
809.157709	8000.00711
809.094293	7999.984528
809.089146	8000.001538
809.241483	8000.001667
809.09013	8000.001488
809.279278	7999.999671
809.284791	7999.996056
809.301852	7999.996888
809.337244	8000.021771
809.262108	8000.019759
809.324789	7999.972896
809.344546	8000.006596
809.395721	8000.005343
809.393005	8000.014778
809.537976	7999.9972
809.416995	8000.021694
809.346406	7999.981413
809.226231	7999.994398
809.251151	8000.009113
809.551339	7999.991864
809.322	        8000.004976
809.487573	8000.025043
809.394471	7999.973972
809.447837	8000.01326
809.503834	8000.010331
809.453582	7999.99998
809.323933	7999.991298
809.40977	7999.997613
809.681555	8000.005848
809.495058	7999.998074
809.611672	7999.990581
809.526115	7999.993805
809.661842	8000.006552
809.587494	7999.998805
809.579644	8000.0176
809.717481	8000.001578
809.783362	7999.979909
809.645274	7999.990041
809.692985	8000.019412
809.646439	7999.993851
809.629308	7999.990989
809.559085	7999.989231
809.551687	8000.017676
809.648634	7999.982212
809.856702	8000.000627
809.868668	8000.030074
809.749249	7999.983416
809.620082	7999.974758
809.819948	8000.029327
809.828653	7999.989298
809.985341	8000.016606
809.937878	7999.975596
809.984068	8000.029916
810.080749	7999.986738
810.042849	8000.002053
809.932501	7999.982817
809.954394	8000.010853
810.004358	7999.99606
809.875728	8000.000906
809.902207	8000.009927
809.895456	8000.015303
809.857263	7999.9998
809.919585	7999.976021
809.830044	7999.99059
809.769198	8000.010494
809.905249	8000.011707
809.845629	8000.008572
809.966636	7999.982054
809.889946	8000.01654
809.921243	7999.993081
809.890617	8000.024174
810.104583	7999.971663
809.845912	7999.998658
809.893675	8000.010705
809.881416	8000.021572
810.044159	7999.989512
809.810768	8000.004339
809.952668	7999.982753
809.940664	8000.005184
809.938963	7999.997344
810.036315	8000.019658
809.964065	7999.986991
810.041193	8000.006333
810.178218	8000.003746
810.022664	8000.055329
810.049551	7999.960409
810.094722	8000.0012
810.179863	8000.015181
810.316765	7999.989485
810.134238	8000.006944
810.218427	8000.017025
810.181701	7999.993897
810.202961	8000.008423
810.146084	7999.990028
810.034147	8000.01884
810.132113	7999.996906
810.236301	7999.988769
810.253911	7999.999256
810.333776	8000.005263
810.137991	8000.010485
810.224651	7999.999516
810.317136	8000.006177
810.213543	7999.983439
810.160907	8000.028796
810.295815	7999.993371
810.223223	8000.010742
810.39889	8000.006304
810.168584	7999.988562
810.288273	8000.015882
810.301211	7999.977996
810.229434	8000.012737
810.267122	8000.010786
810.401202	7999.99457
810.340782	8000.00102
810.283088	7999.997984
810.178191	7999.992507
810.256084	8000.013813
810.385796	7999.976194
810.39227	8000.005357
810.443971	8000.021459
810.396915	8000.005497
810.333838	7999.998332
810.434365	7999.990007
810.490666	8000.014047
810.600164	8000.002335
810.575439	7999.993305
810.465832	8000.016461
810.56717	7999.994701
810.649799	8000.010478
810.612008	7999.98922
810.753583	8000.011897
810.745463	7999.992174
810.612798	7999.99296
810.654756	8000.045137
810.65094	7999.97173
810.848473	8000.001153
810.663261	8000.014622
810.519967	7999.99368
810.697809	8000.002832
810.927248	7999.995402
810.918309	8000.023768
810.916774	7999.992834
810.894172	8000.014717
810.814114	7999.98357
810.743022	8000.014496
810.912066	8000.002015
810.882721	8000.023549
811.082564	7999.989559
810.921429	8000.006199
810.973255	8000.012681
810.834235	7999.980408
810.925036	8000.002384
810.942833	8000.014806
810.890586	7999.994725
810.86717	7999.999238
810.900156	7999.991269
811.009992	7999.994977
811.056888	8000.006979
811.001898	8000.002158
811.055361	8000.008725
811.028813	7999.997674
811.060596	8000.005044
811.111805	7999.992242
811.093817	8000.018214
811.073073	7999.967034
811.161679	8000.013924
811.144854	8000.005302
811.077737	7999.996003
811.216944	8000.005081
811.32763	8000.01461
811.188427	8000.011206
811.289391	7999.985576
811.301069	7999.98228
811.243663	8000.011988
811.288666	8000.012341
811.173485	7999.998629
811.189592	8000.028291
811.165454	7999.984636
811.183823	7999.999013
811.409487	7999.997164
811.373303	8000.018344
811.383142	7999.986073
811.348262	7999.989994
811.337641	8000.000945
811.342587	7999.99345
811.344547	7999.9858
811.570656	8000.028255
811.381061	7999.993364
811.357654	8000.026758
811.477455	7999.984775
811.612921	8000.020615
811.47322	7999.990231
811.51687	7999.99244
811.473863	8000.007491
811.618969	8000.009175
811.555054	7999.992339
811.521013	8000.00593
811.594917	8000.007779
811.717758	8000.01216
811.510957	7999.995632
811.408253	7999.997967
811.679573	8000.000407
811.706099	7999.994028
811.702589	8000.011123
811.745088	8000.011347
811.687803	8000.000631
811.713835	7999.998077
811.783042	7999.991982
811.813056	8000.010813
811.752104	8000.001832
811.714726	8000.003698
811.673563	7999.982264
811.925104	8000.026037
811.892594	8000.010827
811.782626	7999.993533
811.849968	7999.998893
811.802156	8000.009846
811.760211	7999.992222
811.844745	8000.0158
812.022951	7999.999944
811.99351	8000.021473
811.929784	7999.973842
811.805572	8000.015496
812.020657	8000.007324
812.25302	7999.988496
812.094618	7999.993724
812.254326	8000.009641
812.129108	8000.001184
812.30146	8000.010055
812.145937	7999.986552
812.145437	7999.996102
812.307168	8000.012124
812.28895	7999.986102
812.393544	8000.003017
812.355435	7999.991367
812.164863	7999.993005
812.349481	8000.023689
812.232568	7999.977155
812.361041	7999.999157
812.326003	7999.991517
812.266705	8000.009576
812.235566	7999.986736
812.413782	7999.99976
812.479288	8000.006951
812.49984	8000.000263
812.418743	7999.99409
812.45574	7999.99788
812.483279	8000.006956
812.438222	7999.998798
812.203835	7999.992391
812.335251	7999.997218
812.384509	8000.024746
812.238672	7999.984417
812.352598	8000.005666
812.501598	7999.994074
812.448868	8000.006697
812.323945	7999.99633
812.393678	8000.00759
812.49595	7999.995506
812.510892	7999.996229
812.427375	7999.993781
812.476022	8000.000099
812.479013	8000.002129
812.48894	8000.004518
812.41818	7999.989253
812.456701	7999.998897
812.519077	8000.021329
812.437075	7999.995855
812.373528	7999.984814
812.408642	8000.005835
812.505349	8000.018491
812.583539	7999.97243
812.686182	8000.029676
812.572759	7999.975622
812.523508	7999.984574
812.663665	8000.030285
812.701854	7999.989854
812.673093	8000.009493
812.806317	7999.989384
812.725696	7999.985161
812.696527	8000.012481
812.657971	7999.989256
812.623357	8000.000891
812.698695	8000.006666
812.74698	8000.005264
812.783944	7999.987873
812.572274	7999.988419
812.722297	8000.021163
812.678788	8000.011159
812.656025	7999.990677
812.708587	8000.00875
812.765583	7999.994322
812.766726	8000.002032
812.830124	8000.005263
812.770606	8000.000207
812.719174	7999.997494
812.768501	8000.001922
812.71874	8000.020475
812.804194	7999.994043
812.725255	8000.007234
812.81867	7999.992766
812.770813	8000.019118
812.917468	7999.986227
812.922663	7999.992222
812.819415	7999.982976
812.793459	7999.99891
812.976679	8000.01412
812.92649	7999.982591
812.951048	7999.989588
813.034793	8000.018903
813.216622	7999.983982
813.164043	8000.01009
813.149644	7999.995816
813.159662	8000.000135
813.271804	8000.00589
813.2334	7999.99615
813.044001	7999.992072
813.106696	8000.004893
813.113138	8000.012878
813.146356	7999.991443
813.093789	8000.013701
813.249425	8000.006304
813.102424	8000.000569
813.20945	8000.00991
812.991451	8000.0005
813.144445	8000.006444
813.149283	8000.002794
813.185521	8000.002694
813.132972	8000.019177
813.117863	8000.016419
813.215172	7999.988675
813.262748	7999.998789
813.23413	8000.003033
813.306566	8000.012508
813.296224	7999.994594
813.147461	7999.998395
813.27814	7999.991632
813.359132	8000.007327
813.242041	7999.987737
813.283271	7999.993672
813.325231	8000.013122
813.204546	8000.002973
813.347811	8000.008414
813.295042	8000.001781
813.41161	8000.009691
813.259351	7999.990206
813.28664	8000.018523
813.301759	7999.9923
813.181437	7999.989872
813.18364	7999.997637
813.308583	8000.007905
813.353689	8000.006339
813.275459	8000.008015
813.342514	7999.98063
813.468425	8000.021755
813.344053	7999.98831
813.281429	7999.990794
813.425791	8000.015546
813.372286	7999.997322
813.393721	8000.017635
813.410046	8000.006878
813.464208	8000.00578
813.404129	7999.994918
813.476293	7999.998604
813.460143	7999.990016
813.513362	8000.0139
813.396656	7999.99433
813.540011	8000.001701
813.410242	8000.000709
813.404286	7999.998424
813.41296	8000.000748
813.485227	8000.002514
813.38132	8000.020189
813.481134	7999.992574
813.347104	7999.999063
813.522555	8000.002319
813.315758	8000.016593
813.514031	7999.99215
813.358267	8000.016767
813.419598	8000.002564
813.5792	7999.989597
813.435939	7999.989831
813.440454	7999.997716
813.681547	8000.023625
813.503471	8000.002803
813.496195	7999.990824
813.492849	8000.017555
813.578269	8000.002673
813.514057	8000.020478
813.502232	7999.983233
813.564977	8000.011461
813.530692	8000.009636
813.669209	7999.991726
813.480207	7999.983817
813.694178	8000.02565
813.550965	7999.977752
813.589621	8000.006658
813.691853	8000.00805
813.674149	8000.003232
813.732952	7999.996599
813.59024	8000.006489
813.715224	8000.003282
813.631062	7999.991173
813.869457	8000.016942
813.60922	7999.988016
813.861108	8000.012559
813.673551	8000.004723
813.699312	7999.99638
813.80263	8000.020932
813.787585	7999.996998
813.659568	7999.99032
813.891822	8000.00807
813.597436	7999.992779
813.862823	8000.014169
813.796958	8000.004933
813.694695	8000.020767
814.071383	8000.003637
813.90086	8000.002459
813.874083	8000.002948
813.73577	7999.991886
813.926854	8000.019057
813.943582	8000.002544
813.773076	7999.995592
813.798706	7999.998793
813.906309	8000.008165
813.88665	8000.012873
814.022084	7999.994804
813.921335	7999.987612
813.932576	8000.001622
813.898417	7999.990176
813.883817	8000.010549
814.038437	8000.020429
813.784048	8000.001432
813.779151	7999.999202
813.936156	8000.016908
813.965668	8000.010684
814.076831	7999.989433
814.009741	8000.003238
814.113124	8000.006614
813.984444	7999.996051
813.962155	8000.01025
813.969057	7999.993228
814.09864	8000.030693
813.912886	7999.999846
814.068294	8000.003991
814.039471	8000.012075
814.15004	7999.99657
814.067679	7999.994181
813.930341	7999.979318
813.860134	8000.004514
814.237257	8000.00281
814.158631	8000.008315
814.064812	8000.003407
814.274745	8000.010376
814.085182	7999.99666
814.27168	7998.340868
814.154238	7994.359669
814.14705	7990.367823
814.052136	7986.328201
814.091323	7982.358017
814.108703	7978.366525
814.171116	7974.330243
814.079474	7970.356298
814.211241	7966.325508
814.121837	7962.344041
814.078932	7958.34287
814.248203	7954.336101
814.144625	7950.326167
814.100555	7946.327906
813.961597	7942.35659
813.953093	7938.321815
813.960127	7934.342511
814.095121	7930.328357
814.223765	7926.311019
814.056352	7922.318349
814.07298	7918.320442
814.070678	7914.337912
813.942863	7910.313826
814.068846	7906.28404
814.050044	7902.341946
813.985188	7898.302907
814.027817	7894.277762
814.098138	7890.335275
814.043331	7886.318861
814.048039	7882.312062
814.107196	7878.30123
814.018816	7874.299597
813.829888	7870.284621
813.740392	7866.269701
813.972066	7862.305442
814.024917	7858.308814
814.050635	7854.267997
813.941448	7850.297177
813.961058	7846.301004
813.985372	7842.278396
813.770222	7838.268453
813.759661	7834.309137
813.909992	7830.288753
813.960568	7826.279949
813.738748	7822.277607
813.871877	7818.274634
813.915837	7814.255199
813.817888	7810.263543
813.819442	7806.280321
813.922651	7802.262801
813.91454	7798.257355
813.785945	7794.268348
813.915016	7790.269248
813.893461	7786.24911
813.809106	7782.254702
813.829184	7778.263166
813.94048	7774.24729
813.797079	7770.247582
813.746971	7766.238842
813.747246	7762.232419
813.713114	7758.261517
813.671678	7754.25242
813.675749	7750.233085
813.72667	7746.237677
813.66965	7742.252739
813.912203	7738.194789
813.771664	7734.23663
813.868211	7730.25573
813.663816	7726.225839
813.732572	7722.226819
813.554198	7718.226646
813.682473	7714.203839
813.552048	7710.21442
813.628097	7706.22542
813.59897	7702.224422
813.768252	7698.213991
813.733783	7694.227069
813.606423	7690.211741
813.492543	7686.198978
813.552761	7682.220068
813.51892	7678.184426
813.636811	7674.21843
813.65587	7670.213453
813.564722	7666.170972
813.605288	7662.190624
813.481097	7658.211066
813.527491	7654.183047
813.474449	7650.188703
813.405163	7646.213557
813.518289	7642.165925
813.538043	7638.1861
813.460037	7634.194849
813.45957	7630.146629
813.500031	7626.233709
813.598091	7622.166127
813.649099	7618.173832
813.537756	7614.182636
813.440501	7610.152653
813.432681	7606.178943
813.478916	7602.171771
813.358743	7598.169376
813.391443	7594.17781
813.35944	7590.171587
813.430425	7586.168557
813.472239	7582.157903
813.447449	7578.156001
813.371845	7574.167226
813.484942	7570.161484
813.34798	7566.134946
813.228236	7562.150418
813.217172	7558.133649
813.369105	7554.157838
813.290441	7550.161149
813.417949	7546.136836
813.19783	7542.145309
813.1899	7538.14415
813.225683	7534.12043
813.228576	7530.140447
813.16297	7526.158938
813.292302	7522.137142
813.168878	7518.126618
813.146377	7514.100352
813.139857	7510.142937
813.129819	7506.137889
813.096644	7502.105055
813.165191	7498.111501
812.821259	7494.121714
812.978	        7490.116663
813.049357	7486.117932
813.036876	7482.092061
813.044807	7478.135045
813.054114	7474.104603
813.061838	7470.088197
813.125468	7466.127877
813.122828	7462.097372
813.046769	7458.099766
813.224616	7454.092599
813.093887	7450.1082
813.035349	7446.115302
813.01728	7442.057033
813.086707	7438.123644
812.984756	7434.085043
812.994015	7430.070855
812.989166	7426.070236
813.14578	7422.075248
813.073022	7418.101315
813.034234	7414.076719
813.037459	7410.082435
813.058381	7406.066619
812.961302	7402.073861
812.879253	7398.081752
812.913113	7394.056588
813.017406	7390.095011
812.851881	7386.019078
812.804025	7382.094388
812.9171	7378.064032
812.956003	7374.060058
812.914342	7370.061917
813.00115	7366.051437
812.941805	7362.070566
813.034376	7358.033725
812.991766	7354.062907
813.008646	7350.045167
812.95189	7346.036313
812.970193	7342.058609
812.735876	7338.046303
812.921977	7334.050168
813.015269	7330.030014
812.878139	7326.027711
812.695813	7322.027871
812.745305	7318.059344
812.866317	7314.016662
812.71508	7310.02749
812.846617	7306.041605
812.984244	7302.016428
813.000304	7298.047526
812.665112	7294.002823
812.908737	7290.0374
812.870694	7285.989131
812.887853	7282.039235
812.999332	7278.026998
812.752813	7274.003395
812.684347	7269.979745
812.780027	7266.030893
812.74328	7262.000235
812.814613	7258.00962
812.735767	7254.009288
812.68639	7250.013652
812.797568	7246.005367
812.875191	7241.973338
812.699332	7238.034177
812.674982	7233.982173
812.529223	7229.997488
812.575352	7225.993652
812.413636	7221.996978
812.646832	7217.974885
812.505696	7213.991044
812.590302	7209.976111
812.646186	7205.99622
812.508998	7201.981015
812.56803	7197.947593
812.627528	7194.015811
812.750805	7189.957035
812.539229	7185.976218
812.663232	7181.99637
812.810132	7177.963399
812.726919	7173.973776
812.570832	7169.963258
812.479905	7165.943722
812.39528	7161.974719
812.569242	7157.946066
812.686264	7153.98081
812.696516	7149.924545
812.613963	7145.971785
812.349667	7141.932594
812.568542	7137.963301
812.534059	7133.916721
812.407109	7129.957211
812.492761	7125.946812
812.553427	7121.946876
812.565872	7117.93046
812.435935	7113.938904
812.504213	7109.938796
812.474935	7105.923759
812.427823	7101.943916
812.530168	7097.925201
812.443681	7093.934801
812.337858	7089.934163
812.392402	7085.919416
812.333294	7081.923936
812.381665	7077.911245
812.334596	7073.917358
812.460384	7069.920457
812.417794	7065.910757
812.267499	7061.928675
812.205327	7057.89451
812.182365	7053.925746
812.407855	7049.903083
812.189975	7045.904044
812.276946	7041.871404
812.225361	7037.937145
812.259466	7033.894683
812.321851	7029.900062
812.311679	7025.875123
812.231822	7021.92295
812.184643	7017.901255
812.17756	7013.874339
812.106723	7009.902233
812.053743	7005.887413
812.017437	7001.870474
812.200784	6997.892668
812.179078	6993.890883
811.926724	6989.885406
812.125933	6985.855338
811.972143	6981.882127
812.116617	6977.887353
812.108353	6973.868943
812.034145	6969.832329
812.147281	6965.845628
811.986703	6961.886917
811.975126	6957.848678
812.094255	6953.887881
812.05072	6949.839584
812.027276	6945.871004
811.939783	6941.862771
811.733268	6937.832741
811.961473	6933.86878
811.870991	6929.828907
811.859301	6925.860777
811.855767	6921.839198
811.960993	6917.855758
811.901996	6913.855128
812.159267	6909.837269
811.832319	6905.838467
811.964468	6901.841154
811.916663	6897.835422
812.058629	6893.841398
811.919976	6889.832732
812.007901	6885.835506
811.911011	6881.811994
811.842025	6877.833057
811.845768	6873.827019
811.750968	6869.813275
811.814207	6865.823048
811.841722	6861.825292
811.643541	6857.811473
811.783162	6853.796456
811.731392	6849.85969
811.778441	6845.806123
811.905198	6841.807636
811.85454	6837.821646
811.743435	6833.783237
811.856274	6829.831575
811.689703	6825.783033
811.667583	6821.790516
811.747499	6817.829225
811.706684	6813.77371
811.569648	6809.804215
811.601817	6805.796648
811.561642	6801.752668
811.591228	6797.803375
811.688311	6793.804647
811.655402	6789.779357
811.559232	6785.772967
811.53921	6781.787504
811.54814	6777.786735
811.446376	6773.766011
811.609453	6769.78482
811.444277	6765.785052
811.545808	6761.748502
811.56807	6757.767859
811.366792	6753.774668
811.416776	6749.738229
811.504572	6745.800005
811.554343	6741.754347
811.507748	6737.746656
811.622248	6733.787369
811.520241	6729.735269
811.691226	6725.767473
811.459918	6721.747933
811.441973	6717.72876
811.510323	6713.785179
811.453414	6709.730742
811.656036	6705.735427
811.412414	6701.757916
811.506755	6697.741513
811.420095	6693.728535
811.551169	6689.736054
811.36391	6685.72691
811.337593	6681.752561
811.339995	6677.743558
811.264291	6673.707538
811.312501	6669.748969
811.354423	6665.718374
811.187387	6661.696376
811.269614	6657.735473
811.313863	6653.732186
811.188767	6649.716854
811.192152	6645.71725
811.222923	6641.710307
811.315606	6637.700764
811.25181	6633.725958
811.437509	6629.702967
811.381885	6625.718282
811.174413	6621.718397
811.190351	6617.693776
811.126065	6613.689768
811.120944	6609.715565
811.228055	6605.69796
811.093923	6601.69162
811.187065	6597.689387
811.098837	6593.717385
811.072545	6589.686681
811.051935	6585.688746
811.081471	6581.675789
811.047607	6577.695864
811.044519	6573.670139
811.034114	6569.691023
810.959875	6565.664502
811.0467	6561.680649
811.048643	6557.69643
811.00673	6553.669391
810.973334	6549.661964
811.103568	6545.692715
810.930533	6541.647394
811.068027	6537.666578
811.118234	6533.684561
811.024772	6529.642584
811.058224	6525.64104
811.134516	6521.683654
811.180896	6517.660158
810.8582	6513.657303
810.759875	6509.646663
810.960074	6505.672124
810.906659	6501.641536
810.912751	6497.655138
810.771462	6493.657787
810.737766	6489.637928
810.927854	6485.645706
810.840397	6481.62536
810.939553	6477.641953
810.898772	6473.639037
810.786737	6469.637849
810.879889	6465.648427
810.640435	6461.614379
810.721213	6457.622968
810.825835	6453.631978
810.679715	6449.63934
810.768864	6445.619479
810.572266	6441.623893
810.652142	6437.611612
810.715402	6433.614312
810.667467	6429.619521
810.701801	6425.61327
810.573091	6421.598145
810.781341	6417.621713
810.826856	6413.613925
810.639955	6409.581565
810.701945	6405.622051
810.666529	6401.613355
810.555273	6397.593594
810.776545	6393.595809
810.66543	6389.593177
810.528342	6385.592592
810.592866	6381.607508
810.447097	6377.561978
810.466967	6373.607669
810.654935	6369.583377
810.528222	6365.576939
810.428908	6361.59074
810.60119	6357.576075
810.61071	6353.587321
810.517511	6349.585889
810.576048	6345.572986
810.713002	6341.563962
810.695526	6337.597238
810.575123	6333.574952
810.484897	6329.562545
810.454037	6325.560871
810.450215	6321.538992
810.47904	6317.602441
810.509585	6313.526426
810.567889	6309.558852
810.489364	6305.564202
810.547325	6301.566491
810.643666	6297.557994
810.539486	6293.555939
810.660826	6289.564437
810.711684	6285.510001
810.630033	6281.577556
810.463798	6277.545486
810.470741	6273.532489
810.473741	6269.548948
810.313032	6265.537795
810.326884	6261.549893
810.499778	6257.539921
810.43898	6253.513616
810.411259	6249.541436
810.255158	6245.535756
810.286579	6241.52075
810.415506	6237.537473
810.396025	6233.516532
810.438424	6229.519712
810.315496	6225.536468
810.404188	6221.507953
810.332125	6217.527094
810.337491	6213.509825
810.346925	6209.50146
810.368117	6205.50792
810.372827	6201.500374
810.319437	6197.525727
810.265407	6193.507303
810.306291	6189.485568
810.432888	6185.508077
810.35372	6181.502881
810.181193	6177.496791
810.291245	6173.510358
810.335675	6169.494895
810.210915	6165.495838
810.181274	6161.489171
810.294111	6157.489901
810.172586	6153.488734
810.290869	6149.488548
810.255787	6145.481045
810.423635	6141.483098
810.112764	6137.456719
810.265718	6133.493497
810.241475	6129.46989
810.221932	6125.469517
810.108046	6121.475179
810.077709	6117.475737
810.139325	6113.464362
810.224515	6109.46339
810.122814	6105.453857
810.18058	6101.441247
810.21789	6097.486532
809.965391	6093.44897
810.071795	6089.442396
810.207074	6085.445303
810.022223	6081.468509
809.971915	6077.461769
809.933554	6073.439406
809.954973	6069.466707
809.905719	6065.446166
809.964014	6061.449663
809.989327	6057.431142
809.75855	6053.443629
809.791633	6049.452844
809.880016	6045.415022
809.954959	6041.457503
809.928086	6037.427379
809.987328	6033.436435
809.828174	6029.42094
809.921874	6025.42556
810.095678	6021.433255
809.844564	6017.415801
809.717261	6013.413673
809.771758	6009.414561
809.668512	6005.438273
809.700285	6001.402615
809.69142	5997.423858
809.852579	5993.407122
809.753184	5989.400039
809.769262	5985.424898
809.684082	5981.400251
809.808667	5977.403214
809.808277	5973.409555
809.671362	5969.367695
809.69633	5965.432293
809.676466	5961.394365
809.634716	5957.409696
809.626944	5953.371787
809.612167	5949.40444
809.65396	5945.368621
809.576843	5941.386244
809.802559	5937.40092
809.676125	5933.381757
809.809132	5929.387565
809.818613	5925.379457
809.462351	5921.372826
809.485294	5917.389666
809.517025	5913.367819
809.63046	5909.377854
809.595158	5905.379373
809.400051	5901.352663
809.475626	5897.377036
809.557981	5893.373575
809.458685	5889.365445
809.551341	5885.348725
809.324358	5881.36482
809.435022	5877.351332
809.417184	5873.360725
809.587927	5869.344905
809.365719	5865.343136
809.312218	5861.373533
809.522753	5857.357783
809.488495	5853.332663
809.373845	5849.352166
809.505894	5845.339783
809.334728	5841.329723
809.40717	5837.322491
809.445043	5833.356688
809.481887	5829.332797
809.452345	5825.357408
809.493372	5821.336123
809.408676	5817.342784
809.356277	5813.31076
809.290449	5809.323138
809.363707	5805.333076
809.281945	5801.325325
809.293619	5797.324884
809.466994	5793.315009
809.393575	5789.304592
809.245326	5785.314818
809.246588	5781.316614
809.263306	5777.321142
809.337548	5773.308
809.355492	5769.305326
809.274635	5765.31712
809.280104	5761.297657
809.291314	5757.307337
809.378043	5753.307236
809.374768	5749.279677
809.345755	5745.304719
809.340194	5741.300395
809.231535	5737.282032
809.111543	5733.299631
809.235557	5729.284015
809.135346	5725.291717
809.379572	5721.286441
809.292963	5717.288434
809.064772	5713.273953
809.151263	5709.288623
809.168163	5705.280592
809.055685	5701.266525
808.998737	5697.289534
809.036626	5693.270525
809.035922	5689.269102
809.148908	5685.252207
809.036668	5681.271119
809.004139	5677.26381
808.882271	5673.264498
809.036085	5669.255504
809.058336	5665.278091
809.020155	5661.243844
808.953168	5657.257105
808.866829	5653.249372
808.84943	5649.257087
809.041754	5645.257863
808.714436	5641.238074
808.869122	5637.27562
808.983716	5633.236595
808.744686	5629.237913
808.679605	5625.241904
808.812189	5621.243947
808.823708	5617.231251
808.721961	5613.236927
808.897057	5609.231613
808.794565	5605.244934
808.808363	5601.21102
808.932066	5597.235169
808.826059	5593.215539
808.67295	5589.224236
808.607749	5585.204128
808.655227	5581.232209
808.748837	5577.218625
808.911679	5573.235535
808.665706	5569.206527
808.627967	5565.217824
808.656698	5561.216096
808.762525	5557.209149
808.589543	5553.193888
808.569938	5549.21438
808.599347	5545.195659
808.479933	5541.197122
808.709608	5537.224779
808.746552	5533.18351
808.540957	5529.216176
808.549845	5525.180834
808.730464	5521.213498
808.631621	5517.198824
808.563133	5513.182443
808.70889	5509.193569
808.797356	5505.176166
808.587355	5501.184364
808.499723	5497.174147
808.58142	5493.197222
808.442415	5489.177512
808.517935	5485.188309
808.534678	5481.168346
808.574465	5477.174833
808.457525	5473.170715
808.60236	5469.167731
808.414814	5465.157899
808.688915	5461.18235
808.505433	5457.166494
808.514722	5453.158262
808.644103	5449.168261
808.519463	5445.161595
808.459121	5441.143513
808.445357	5437.15994
808.560265	5433.14484
808.302271	5429.140365
808.331472	5425.159116
808.285442	5421.155825
808.434107	5417.144692
808.422803	5413.144108
808.341657	5409.139714
808.318581	5405.128811
808.228261	5401.147453
808.362922	5397.131867
808.424187	5393.157083
808.273766	5389.12055
808.234401	5385.127639
808.347432	5381.127883
808.337231	5377.144941
808.304127	5373.120465
808.286808	5369.133469
808.401977	5365.111599
808.279264	5361.121014
808.243808	5357.093726
808.22059	5353.130091
808.258193	5349.125739
808.131435	5345.102352
808.256954	5341.0991
808.259207	5337.123847
808.280727	5333.101248
808.290221	5329.104957
808.338271	5325.119219
808.235893	5321.094455
808.318552	5317.0861
808.261847	5313.124437
808.341766	5309.097756
808.333164	5305.095735
807.895951	5301.094975
807.859387	5297.067658
807.904953	5293.106989
808.017656	5289.088196
808.02033	5285.068781
808.052743	5281.076649
808.033159	5277.089963
807.919617	5273.077061
807.992887	5269.09901
808.098948	5265.078154
807.947386	5261.052868
808.022595	5257.086956
808.027643	5253.079235
807.87116	5249.056263
807.825637	5245.076679
808.043955	5241.068021
808.091869	5237.047565
808.077212	5233.056481
807.958527	5229.071868
808.065779	5225.055455
807.820417	5221.047527
807.812589	5217.060593
807.843096	5213.061345
807.785409	5209.041533
807.908463	5205.056969
807.878126	5201.041563
807.832792	5197.046901
807.83537	5193.043519
807.699154	5189.041697
807.800622	5185.026225
807.920482	5181.062242
807.790301	5177.039792
807.704681	5173.017339
807.602739	5169.056141
807.756483	5165.038485
807.690177	5161.001235
807.748097	5157.03346
807.691227	5153.014462
807.515749	5149.028386
807.551013	5145.01694
807.39102	5141.024052
807.447553	5137.004776
807.782408	5133.011135
807.637339	5129.021469
807.61377	5125.014219
807.732698	5120.991693
807.785195	5117.017228
807.70823	5113.000189
807.51406	5108.998279
807.365125	5104.99627
807.607923	5101.001467
807.494699	5097.011239
807.471622	5092.984426
807.56405	5088.97957
807.509403	5085.006418
807.45578	5080.996917
807.551585	5076.974075
807.507545	5072.998132
807.417367	5069.00155
807.500029	5064.959868
807.484233	5060.995121
807.290123	5056.989409
807.56801	5052.956392
807.427504	5048.987129
807.326291	5044.975583
807.44718	5040.957769
807.387234	5036.98462
807.376953	5032.964192
807.325631	5028.958442
807.434383	5024.971767
807.469668	5020.953406
807.376756	5016.953154
807.28568	5012.966663
807.257629	5008.960058
807.195533	5004.9487
807.280363	5000.955251
807.286915	4996.944248
807.21582	4992.945572
807.399752	4988.965719
807.339409	4984.948277
807.410048	4980.931687
807.319679	4976.966751
807.165767	4972.954008
807.221129	4968.923611
807.151574	4964.941887
807.245975	4960.937419
807.064776	4956.931375
807.194859	4952.948355
807.199273	4948.927098
807.163195	4944.914435
807.164705	4940.929958
807.103846	4936.92376
807.094198	4932.916992
807.312824	4928.934119
807.254588	4924.93707
806.990165	4920.891819
806.983348	4916.920862
807.047042	4912.923382
806.992146	4908.904435
807.101722	4904.916458
807.072192	4900.904896
807.009672	4896.890282
807.105362	4892.921967
807.017419	4888.903287
807.080499	4884.917521
806.870761	4880.886155
806.772291	4876.907585
806.941198	4872.89391
806.898959	4868.895607
806.939627	4864.897507
806.94696	4860.882809
806.939564	4856.896038
806.829437	4852.885216
806.958465	4848.884219
806.930305	4844.882001
806.770208	4840.875235
806.78737	4836.892289
806.680844	4832.853205
806.670171	4828.882992
806.919708	4824.873946
807.013008	4820.88332
806.935568	4816.880227
806.937529	4812.857832
806.714775	4808.877421
806.765081	4804.846287
806.803693	4800.875138
806.802026	4796.841353
806.747289	4792.882203
806.805446	4788.835382
806.790731	4784.879816
806.560315	4780.85195
806.812082	4776.854158
806.717492	4772.850944
806.638472	4768.860619
806.543387	4764.84574
806.694319	4760.850053
806.912804	4756.83404
806.987947	4752.842108
806.744042	4748.862493
806.639747	4744.834564
806.718955	4740.836098
806.776753	4736.844737
806.540024	4732.817693
806.585532	4728.844352
806.668159	4724.830561
806.80781	4720.82158
806.7471	4716.829901
806.639046	4712.818353
806.506506	4708.827533
806.683333	4704.823214
806.547983	4700.821697
806.520398	4696.820265
806.613798	4692.812277
806.519315	4688.805556
806.442101	4684.823404
806.455129	4680.821348
806.473996	4676.799875
806.433018	4672.81493
806.383175	4668.797987
806.556167	4664.803377
806.591576	4660.792116
806.56743	4656.816597
806.438937	4652.793249
806.307944	4648.800579
806.338659	4644.796198
806.369985	4640.780875
806.422072	4636.782402
806.419099	4632.798727
806.294875	4628.781597
806.465631	4624.793784
806.376461	4620.782639
806.372348	4616.761425
806.352379	4612.790606
806.240277	4608.763624
806.316559	4604.77714
806.342018	4600.774342
806.337097	4596.749793
806.20994	4592.778931
806.003882	4588.773483
806.077428	4584.767531
806.033816	4580.76135
806.152411	4576.785711
805.972865	4572.726269
806.082466	4568.761771
806.111187	4564.76362
806.188274	4560.749904
806.190546	4556.752123
806.314843	4552.754602
806.063132	4548.727728
805.923902	4544.7668
806.138308	4540.745323
806.055685	4536.751811
806.049528	4532.737598
806.066123	4528.734809
806.122299	4524.722067
805.937953	4520.753346
806.060264	4516.743302
806.162757	4512.739665
805.971107	4508.716719
805.972496	4504.724244
806.001598	4500.727567
805.899613	4496.732567
805.970064	4492.730459
805.924214	4488.73142
805.920755	4484.717205
806.04032	4480.707288
805.977334	4476.719445
805.970148	4472.727292
805.830714	4468.721795
805.82141	4464.712904
805.883192	4460.710428
806.11512	4456.693505
805.915403	4452.709979
805.9746	4448.717848
805.918199	4444.686963
805.859806	4440.710046
805.804971	4436.686929
805.944902	4432.697055
805.982386	4428.7003
805.856086	4424.71686
805.948746	4420.682844
805.675318	4416.700595
805.726616	4412.676091
805.76323	4408.696717
805.847461	4404.693947
805.826016	4400.685374
805.696963	4396.688446
805.665311	4392.677521
805.744546	4388.670487
805.742272	4384.678605
805.656947	4380.670361
805.728382	4376.677634
805.54509	4372.678726
805.569652	4368.67002
805.72211	4364.663364
805.518609	4360.672447
805.458352	4356.65831
805.580424	4352.663723
805.512308	4348.667927
805.521541	4344.646361
805.533323	4340.657907
805.52601	4336.643749
805.55483	4332.660647
805.638041	4328.660994
805.594813	4324.65504
805.42779	4320.644835
805.466621	4316.648908
805.496462	4312.64673
805.558745	4308.637924
805.338601	4304.654598
805.387831	4300.628791
805.41826	4296.639397
805.279851	4292.645801
805.211727	4288.620521
805.408287	4284.638296
805.341141	4280.624377
805.456413	4276.632211
805.357399	4272.610392
805.270345	4268.632259
805.259329	4264.615704
805.221664	4260.634545
805.255716	4256.609567
805.190972	4252.613866
805.114991	4248.622107
805.225118	4244.626797
805.222223	4240.617049
805.091604	4236.612255
805.157693	4232.603195
805.133602	4228.609438
805.024334	4224.601026
805.030941	4220.619546
805.107737	4216.590214
805.223843	4212.593334
805.162374	4208.597647
805.142445	4204.613807
804.94274	4200.594058
805.032947	4196.590586
805.171456	4192.592828
805.084721	4188.588939
805.204478	4184.579127
805.061549	4180.582581
805.237515	4176.592415
805.181011	4172.579878
805.029016	4168.554397
804.8816	4164.59225
805.092283	4160.591615
804.785423	4156.57704
804.849757	4152.574977
805.033449	4148.578763
804.953557	4144.557677
805.128086	4140.564995
805.025576	4136.568019
804.83605	4132.575915
804.775464	4128.558959
804.875704	4124.567369
805.036869	4120.549095
804.847227	4116.563124
804.979573	4112.564418
804.938042	4108.55483
804.846013	4104.533112
804.909893	4100.569628
804.923698	4096.549402
804.752659	4092.544968
804.799009	4088.547874
804.734167	4084.552547
804.620368	4080.5291
804.770842	4076.557598
804.844906	4072.523722
804.866922	4068.544547
804.696765	4064.535339
804.724398	4060.530423
804.739718	4056.53516
804.71449	4052.534876
804.700377	4048.523263
804.716036	4044.527402
804.7345	4040.527698
804.613073	4036.509879
804.644806	4032.519271
804.762315	4028.520421
804.662147	4024.513784
804.547887	4020.515587
804.532878	4016.497205
804.426577	4012.527811
804.438548	4008.508619
804.436661	4004.516419
804.44535	4000.499227
804.56055	3996.499129
804.533512	3992.508226
804.454865	3988.505718
804.430739	3984.491665
804.334401	3980.492927
804.320454	3976.506045
804.400923	3972.48896
804.319654	3968.493583
804.20899	3964.500887
804.227656	3960.482375
804.325667	3956.495007
804.325504	3952.47418
804.388735	3948.48629
804.311563	3944.474224
804.144232	3940.486368
804.097935	3936.491716
804.170064	3932.460383
804.069704	3928.48584
804.170545	3924.470633
804.146312	3920.459668
804.278116	3916.465144
804.133959	3912.476393
804.15773	3908.458256
804.115081	3904.468046
804.126756	3900.451324
804.28831	3896.47988
804.003304	3892.455004
804.217915	3888.445479
804.284322	3884.459016
804.264946	3880.467286
804.261719	3876.439719
804.320124	3872.45495
804.113773	3868.434306
804.285184	3864.453151
804.191693	3860.453129
804.09191	3856.430568
804.235996	3852.452555
804.074422	3848.440671
804.189498	3844.433627
804.112259	3840.443719
804.218791	3836.426413
804.280925	3832.434663
804.17478	3828.429331
804.187874	3824.389365
804.123663	3820.42462
804.116594	3816.441356
804.067407	3812.430339
804.040179	3808.422359
804.066618	3804.414306
803.951995	3800.424441
803.997983	3796.419579
804.017151	3792.426156
804.033222	3788.42156
803.880658	3784.409202
804.076841	3780.408138
803.954622	3776.413588
803.961874	3772.409716
804.029087	3768.395185
804.076709	3764.423628
803.836019	3760.384313
803.791875	3756.410601
803.921434	3752.3933
803.711833	3748.39654
803.911615	3744.40046
803.90618	3740.386471
803.832859	3736.391193
803.719745	3732.396447
803.678093	3728.39481
803.623105	3724.390965
803.835828	3720.384625
803.748306	3716.38612
803.635332	3712.37644
803.544372	3708.383698
803.612305	3704.386355
803.557842	3700.351741
803.80794	3696.380397
803.650193	3692.377388
803.649989	3688.369835
803.608457	3684.376931
803.688114	3680.357188
803.610044	3676.371362
803.617921	3672.368142
803.521926	3668.35161
803.683156	3664.3758
803.626656	3660.361574
803.650015	3656.336394
803.557897	3652.360242
803.407753	3648.359948
803.672577	3644.361564
803.583	3640.341455
803.372218	3636.336673
803.480666	3632.355258
803.508649	3628.346351
803.31751	3624.345702
803.325728	3620.357077
803.267512	3616.320924
803.361683	3612.345155
803.376054	3608.328891
803.440103	3604.341412
803.30644	3600.339656
803.503219	3596.316589
803.338932	3592.341912
803.185475	3588.322093
803.375316	3584.331381
803.195908	3580.322604
803.429858	3576.306285
803.271395	3572.317026
803.235206	3568.325559
803.08642	3564.322225
803.014319	3560.321793
803.059014	3556.314346
802.990717	3552.314646
803.107185	3548.309318
803.150156	3544.314255
803.144837	3540.309822
802.937899	3536.292186
803.288959	3532.324757
803.18427	3528.299544
803.046979	3524.302639
802.958457	3520.299891
803.030364	3516.2947
803.066195	3512.286973
803.145522	3508.313229
802.971184	3504.284526
802.926443	3500.285048
802.850076	3496.277566
803.05444	3492.295849
802.832326	3488.278852
802.894992	3484.302677
802.989513	3480.274368
802.969119	3476.284571
802.985208	3472.273852
802.749052	3468.280794
802.849827	3464.287689
802.796917	3460.265163
802.797666	3456.261373
802.762717	3452.273803
802.885651	3448.265009
802.874892	3444.275213
802.868797	3440.272474
802.768348	3436.246948
802.685775	3432.268815
802.721931	3428.249199
802.744942	3424.275773
802.665819	3420.255428
802.614033	3416.243868
802.589934	3412.25252
802.615476	3408.254528
802.751786	3404.250829
802.675115	3400.248504
802.69743	3396.233898
802.571671	3392.246817
802.651482	3388.256365
802.545428	3384.236435
802.723892	3380.248586
802.544395	3376.221362
802.562189	3372.236492
802.549456	3368.246445
802.367384	3364.22636
802.562549	3360.243641
802.573216	3356.209488
802.478848	3352.244677
802.553941	3348.221269
802.446778	3344.2179
802.505066	3340.239713
802.485199	3336.186912
802.416325	3332.234886
802.246894	3328.224289
802.397471	3324.218349
802.423185	3320.210934
802.335528	3316.209245
802.423215	3312.210794
802.336855	3308.210442
802.40598	3304.216978
802.238853	3300.209195
802.334017	3296.191546
802.462698	3292.21009
802.363654	3288.197986
802.246592	3284.202425
802.252533	3280.202201
802.362349	3276.182141
802.297454	3272.20435
802.431345	3268.188521
802.306672	3264.19279
801.977272	3260.192272
802.091719	3256.170251
802.242594	3252.193274
802.225814	3248.187488
802.031191	3244.175787
802.134611	3240.200168
802.077531	3236.170974
802.168214	3232.185607
802.172924	3228.162159
802.006677	3224.182034
802.233176	3220.176525
802.173899	3216.156881
802.146583	3212.178139
802.205656	3208.163191
802.102672	3204.180211
802.179788	3200.156507
802.016617	3196.162968
801.951528	3192.169918
802.030352	3188.155023
802.129319	3184.154144
802.040572	3180.130364
801.92992	3176.165992
802.00186	3172.16554
801.955658	3168.15538
801.973178	3164.149509
801.963241	3160.142515
802.034082	3156.155344
802.023394	3152.142141
802.010248	3148.145097
801.805244	3144.157348
801.826419	3140.121332
801.87538	3136.137157
801.851659	3132.148319
801.849467	3128.129185
801.936564	3124.134997
801.9365	3120.129056
801.928191	3116.141621
801.965241	3112.113079
801.731132	3108.144021
801.68293	3104.093966
801.830231	3100.13636
801.782401	3096.122872
801.688368	3092.126744
801.733315	3088.131574
801.706978	3084.099634
801.690284	3080.11299
801.735445	3076.110525
801.672092	3072.116982
801.49619	3068.111577
801.631148	3064.093029
801.618512	3060.118831
801.509362	3056.10338
801.571963	3052.116926
801.479122	3048.092757
801.624129	3044.096948
801.514011	3040.11515
801.388722	3036.083644
801.503034	3032.090429
801.682498	3028.074426
801.444445	3024.103379
801.523338	3020.097599
801.493441	3016.096212
801.59882	3012.093927
801.366266	3008.072303
801.406369	3004.085817
801.415095	3000.088771
801.434055	2996.084192
801.414333	2992.095637
801.324191	2988.038855
801.392181	2984.086573
801.195072	2980.068562
801.312219	2976.077968
801.290597	2972.063961
801.292339	2968.082372
801.146387	2964.065871
801.235365	2960.054779
801.190342	2956.068879
801.22461	2952.052369
801.140101	2948.061329
801.317736	2944.060775
801.348388	2940.061194
801.245374	2936.055952
801.016604	2932.057386
801.298953	2928.046635
801.166418	2924.053996
801.204551	2920.049849
801.132324	2916.027134
801.103834	2912.054596
801.113754	2908.04454
801.142162	2904.054659
801.167812	2900.03632
801.241046	2896.038054
801.079542	2892.035005
801.067279	2888.032576
801.04684	2884.041858
801.074452	2880.028096
800.928113	2876.028137
800.998101	2872.036347
800.93188	2868.035011
800.994081	2864.021038
800.954945	2860.032098
800.944095	2856.024616
800.823191	2852.024954
800.857494	2848.029125
800.88302	2844.019865
800.91198	2840.006447
800.838863	2836.023462
800.884737	2832.008286
800.851998	2828.022803
800.874612	2824.0049
800.768097	2820.010431
800.813273	2816.003045
800.752638	2812.002634
800.780459	2808.015231
800.707726	2803.98484
800.914155	2800.005116
800.726264	2795.99771
800.892555	2792.004904
800.814577	2787.988221
800.699903	2783.999671
800.676648	2779.999929
800.736414	2775.995083
800.723737	2771.986291
800.717693	2767.982388
800.563559	2763.995509
800.599883	2759.984376
800.626796	2755.978709
800.512564	2751.970925
800.652644	2747.97971
800.630203	2743.981806
800.478131	2739.981793
800.626979	2735.974129
800.673426	2731.960817
800.528792	2727.986651
800.496492	2723.967379
800.566852	2719.979757
800.397206	2715.960474
800.451973	2711.968026
800.462428	2707.972311
800.392123	2703.967665
800.475656	2699.956849
800.464163	2695.954709
800.319294	2691.962676
800.422132	2687.956316
800.329154	2683.961864
800.356193	2679.9461
800.396954	2675.949246
800.317416	2671.954891
800.40735	2667.946203
800.330117	2663.95437
800.20799	2659.928958
800.328242	2655.946835
800.309784	2651.938201
800.192308	2647.951972
800.217765	2643.933915
800.084238	2639.934826
800.270472	2635.942265
800.09383	2631.942989
800.048749	2627.928436
799.928465	2623.930866
800.292537	2619.929456
800.141521	2615.930907
800.167703	2611.928185
800.168041	2607.916621
800.006029	2603.93811
800.121493	2599.91421
800.042178	2595.925923
800.080683	2591.894073
799.938116	2587.921563
800.068568	2583.927587
800.183692	2579.920845
799.907155	2575.915252
800.097859	2571.91013
800.053183	2567.905168
799.987259	2563.917275
799.946583	2559.911574
800.010375	2555.897382
800.142547	2551.908293
800.060535	2547.903858
800.154316	2543.913271
799.880905	2539.89346
799.809062	2535.903408
800.028746	2531.905386
800.031402	2527.892078
799.89386	2523.898503
799.96302	2519.877352
799.990966	2515.896543
800.060443	2511.898368
799.881773	2507.884483
799.791175	2503.883272
799.92332	2499.887246
799.879656	2495.882132
799.813712	2491.884821
799.733509	2487.871289
799.877249	2483.880224
799.79201	2479.875499
799.632598	2475.881404
799.766061	2471.879599
799.730838	2467.870966
799.693115	2463.876613
799.664318	2459.861807
799.711977	2455.861821
799.648394	2451.84846
799.651772	2447.867381
799.471276	2443.867946
799.364625	2439.870521
799.252933	2435.851187
799.45004	2431.863674
799.416719	2427.863494
799.513047	2423.85914
799.480177	2419.8368
799.281209	2415.860657
799.516375	2411.856524
799.554791	2407.854459
799.355381	2403.848668
799.167385	2399.844153
799.340345	2395.844493
799.397216	2391.840695
799.369888	2387.850066
799.434853	2383.830446
799.291801	2379.842683
799.318826	2375.84786
799.228507	2371.834223
799.230653	2367.830365
799.390819	2363.839584
799.409547	2359.832438
799.195143	2355.830864
799.024898	2351.818618
799.174935	2347.832396
799.313762	2343.824926
799.238968	2339.822962
799.225019	2335.820547
799.156818	2331.820966
798.907462	2327.827968
798.943745	2323.814113
799.023731	2319.813555
799.261017	2315.809189
799.07709	2311.813135
799.029152	2307.819655
799.06501	2303.819134
798.79055	2299.795677
798.887608	2295.821141
798.891817	2291.803975
798.839783	2287.810719
799.146919	2283.791322
798.951979	2279.805192
799.025856	2275.801368
798.941112	2271.808207
798.786828	2267.791094
798.942675	2263.794781
798.912355	2259.789983
798.911991	2255.803677
798.779654	2251.777133
798.878606	2247.797653
798.964672	2243.793626
798.710804	2239.7948
798.70075	2235.778974
798.772428	2231.785571
798.965271	2227.790243
798.870546	2223.783919
798.72381	2219.771816
798.713918	2215.781959
798.782392	2211.780917
798.746914	2207.776956
798.718201	2203.766149
798.743626	2199.774769
798.524648	2195.772284
798.688628	2191.778997
798.664392	2187.73705
798.60551	2183.77849
798.670186	2179.774566
798.59392	2175.765442
798.371047	2171.760732
798.506722	2167.760057
798.597171	2163.756588
798.559174	2159.773284
798.456451	2155.751162
798.537358	2151.764731
798.360945	2147.75325
798.46652	2143.765856
798.305901	2139.740354
798.487291	2135.756763
798.364391	2131.748283
798.50816	2127.747607
798.503444	2123.734558
798.369435	2119.751755
798.319526	2115.740756
798.355819	2111.755852
798.134884	2107.731018
798.369133	2103.743411
798.212339	2099.743881
798.306369	2095.734925
798.445021	2091.72166
798.256812	2087.739826
798.288346	2083.735721
798.23258	2079.733756
798.274837	2075.720137
798.313651	2071.729698
798.302395	2067.729058
798.299996	2063.730818
798.260116	2059.700682
798.105211	2055.729903
798.202823	2051.731366
798.096862	2047.728684
797.981588	2043.715282
798.092971	2039.71861
798.04153	2035.720666
797.998699	2031.726714
797.977733	2027.702995
797.990471	2023.71751
798.143953	2019.722651
798.031827	2015.70381
797.964489	2011.705233
797.838707	2007.710034
797.922522	2003.701401
798.017082	1999.708396
797.879905	1995.689436
797.870073	1991.712018
797.931601	1987.713935
797.843222	1983.69572
797.891801	1979.694317
797.929933	1975.706368
797.819723	1971.69086
797.658847	1967.703127
797.894455	1963.680316
797.756229	1959.689651
797.795967	1955.696798
797.910879	1951.679933
797.879692	1947.691161
797.721083	1943.68632
797.666956	1939.684112
797.668956	1935.664966
797.662138	1931.694347
797.658094	1927.682101
797.568613	1923.678269
797.498632	1919.67761
797.721119	1915.676612
797.673673	1911.679538
797.544425	1907.68318
797.440662	1903.654697
797.648184	1899.679977
797.597575	1895.677281
797.575165	1891.669313
797.558047	1887.663532
797.546485	1883.668608
797.526348	1879.657435
797.413582	1875.658846
797.398075	1871.662089
797.459515	1867.66118
797.444707	1863.67208
797.461195	1859.657117
797.372606	1855.660858
797.285489	1851.655387
797.23021	1847.651946
797.341144	1843.644877
797.358621	1839.653025
797.229864	1835.653525
797.29092	1831.652369
797.188803	1827.636928
797.259678	1823.654258
797.211468	1819.638969
797.094976	1815.630193
797.23154	1811.638468
797.210604	1807.652851
797.097163	1803.654549
797.025716	1799.628944
796.927494	1795.64806
797.008087	1791.63755
796.987959	1787.63954
797.036957	1783.627055
797.148854	1779.635846
797.00035	1775.634775
796.971426	1771.630212
796.998867	1767.62522
797.000731	1763.618942
796.989644	1759.642255
796.926991	1755.607697
796.772636	1751.630377
797.130736	1747.628566
796.853442	1743.634328
796.796633	1739.611012
796.610311	1735.626567
796.829736	1731.618225
796.753913	1727.606207
796.680399	1723.610881
796.70666	1719.629909
796.521074	1715.608851
796.807139	1711.611796
796.671915	1707.616253
796.734732	1703.606132
796.620649	1699.613135
796.759735	1695.583654
796.744469	1691.618883
796.628835	1687.612868
796.509796	1683.601785
796.656683	1679.605665
796.67069	1675.598369
796.549413	1671.610645
796.516842	1667.585149
796.556715	1663.611368
796.552737	1659.593466
796.494416	1655.59222
796.555634	1651.600893
796.425447	1647.5965
796.504567	1643.595583
796.391564	1639.579832
796.248971	1635.599551
796.360208	1631.587862
796.260948	1627.583471
796.291666	1623.594111
796.134267	1619.587732
796.158289	1615.597994
796.249905	1611.558767
796.270689	1607.58868
796.083165	1603.587468
796.057069	1599.587588
796.123643	1595.561342
796.121765	1591.581966
796.254951	1587.576129
796.168745	1583.524332
796.357211	1579.590763
796.13414	1575.587766
796.091328	1571.571586
796.176167	1567.575131
796.146016	1563.578052
796.08223	1559.567769
796.140963	1555.553863
795.994928	1551.581176
795.887888	1547.568912
796.048004	1543.562902
795.997746	1539.571768
795.953724	1535.557446
795.930679	1531.568333
795.910149	1527.543651
796.12069	1523.57432
795.8813	1519.567062
795.945021	1515.544368
795.940211	1511.56293
796.127355	1507.55624
796.045841	1503.562147
795.89676	1499.54476
795.920646	1495.552581
795.957503	1491.556236
795.877412	1487.537695
795.888834	1483.55701
795.820297	1479.540776
795.809833	1475.565263
795.936637	1471.518796
795.889483	1467.552855
795.716412	1463.551595
795.621479	1459.550388
795.733474	1455.542572
795.754581	1451.545098
795.601821	1447.533825
795.531831	1443.536284
795.503363	1439.556147
795.403071	1435.54277
795.363872	1431.526799
795.483468	1427.538695
795.361994	1423.536178
795.594649	1419.51817
795.485557	1415.547624
795.469346	1411.528415
795.434007	1407.526251
795.46974	1403.535424
795.436787	1399.524734
795.415815	1395.535084
795.516815	1391.515245
795.640031	1387.524527
795.4857	1383.539267
795.540507	1379.516918
795.458609	1375.522608
795.218084	1371.524433
795.425914	1367.495052
795.294823	1363.534944
795.583918	1359.523731
795.39462	1355.519588
795.377445	1351.516776
795.324252	1347.524631
795.388791	1343.518176
795.335514	1339.505729
795.365112	1335.52041
795.068451	1331.526522
795.119314	1327.502541
795.250148	1323.509894
795.359079	1319.511739
795.243097	1315.493172
795.227194	1311.516197
795.198589	1307.517468
795.088984	1303.509193
795.135725	1299.510099
795.080635	1295.507793
795.047397	1291.51206
794.962481	1287.495787
795.113418	1283.498539
795.104036	1279.515579
794.961862	1275.492183
795.01524	1271.496874
795.078759	1267.509278
794.947237	1263.484089
794.836053	1259.504478
794.818778	1255.502782
794.897305	1251.49062
794.826507	1247.505673
794.861237	1243.495489
794.715495	1239.489337
794.726625	1235.493642
794.937997	1231.5041
794.748114	1227.486565
794.604495	1223.495209
794.608519	1219.491408
794.467991	1215.481553
794.62777	1211.491557
794.384975	1207.495456
794.680514	1203.487646
794.600424	1199.48447
794.58037	1195.493939
794.626507	1191.487372
794.657343	1187.474986
794.581083	1183.479881
794.639343	1179.494899
794.471683	1175.47244
794.408168	1171.484337
794.31509	1167.49092
794.486044	1163.453139
794.520767	1159.493987
794.408984	1155.488905
794.395167	1151.474814
794.32441	1147.49222
794.508846	1143.472612
794.473847	1139.469586
794.333003	1135.484705
794.476141	1131.485689
794.323326	1127.476463
794.31068	1123.473365
794.123696	1119.484808
794.286491	1115.452899
794.317259	1111.479282
794.222951	1107.478425
794.116218	1103.476234
794.235719	1099.471369
794.253197	1095.47937
794.209394	1091.456385
794.168939	1087.473744
794.087241	1083.476645
794.115687	1079.457686
794.071042	1075.474507
794.010225	1071.470425
794.081895	1067.44757
793.970149	1063.478536
794.05765	1059.478091
793.899279	1055.458255
793.985919	1051.471503
793.846237	1047.468648
794.086841	1043.450339
793.855549	1039.473794
793.715051	1035.469713
793.765826	1031.458876
793.637729	1027.464372
793.716783	1023.453418
793.813544	1019.465184
793.711375	1015.467152
793.606042	1011.464014
793.677056	1007.467347
793.865564	1003.455494
793.747257	999.441427
793.534818	995.475278
793.62023	991.464251
793.563065	987.447264
793.603364	983.45968
793.578033	979.461752
793.631094	975.443766
793.3603	971.466849
793.382713	967.46752
793.467073	963.454326
793.492618	959.454959
793.508554	955.463201
793.268552	951.451239
793.32903	947.46568
793.253697	943.450705
793.184354	939.462254
793.117586	935.450742
793.140367	931.441495
793.166884	927.45528
793.209839	923.465832
793.18095	919.449358
793.021583	915.456563
792.957195	911.47042
793.026669	907.440789
793.094528	903.452108
793.051823	899.448276
792.988472	895.454027
792.960533	891.458001
792.839159	887.438519
792.834388	883.460168
792.859976	879.462633
792.930718	875.444088
793.018228	871.456555
792.738024	867.453006
792.752657	863.445774
792.911645	859.462515
792.813	        855.445863
792.909767	851.45598
792.845837	847.461665
792.81743	843.429239
792.624864	839.470622
792.554305	835.454175
792.828291	831.452781
792.689436	827.447038
792.684842	823.442007
792.776509	819.449653
792.717886	815.468965
792.513918	811.441019
792.532441	807.454184
792.542592	803.431377
792.467377	799.457283
792.405744	795.468459
792.279233	791.458802
792.47758	787.459385
792.394315	783.454745
792.429184	779.446887
792.30554	775.461219
792.410521	771.447019
792.275695	767.463478
792.233518	763.460362
792.317051	759.433744
792.245113	755.475413
792.156058	751.45768
792.205986	747.456017
792.029662	743.479111
791.802804	739.437755
792.11377	735.458119
792.044933	731.461746
792.113954	727.454934
792.086927	723.460205
792.055716	719.447108
791.917352	715.470469
791.971778	711.463034
791.844789	707.468639
791.757378	703.464903
791.889999	699.454664
791.752828	695.466136
791.864242	691.45934
791.802959	687.465739
791.871488	683.462267
791.764176	679.460442
791.561703	675.480259
791.748287	671.451451
791.68503	667.474004
791.575056	663.476241
791.509677	659.451033
791.460988	655.483146
791.388887	651.466493
791.573624	647.459288
791.362709	643.466863
791.339547	639.468508
791.431373	635.487468
791.259145	631.477956
791.196276	627.483397
791.222525	623.45837
791.305397	619.491234
791.430068	615.465179
791.346871	611.486436
791.295448	607.482313
791.097658	603.466598
791.061115	599.49648
791.261939	595.474133
791.190418	591.488972
791.107029	587.477819
791.219849	583.48409
791.197422	579.497733
790.926159	575.484457
790.975921	571.489993
790.878619	567.475253
790.831577	563.504374
790.743869	559.503529
790.638304	555.497346
790.763779	551.49246
790.922181	547.479624
790.759567	543.509362
790.773054	539.49894
790.783032	535.50186
790.755164	531.482285
790.604101	527.515594
790.568138	523.51279
790.342116	519.513632
790.662994	515.490207
790.527537	511.507985
790.527491	507.528359
790.547654	503.50832
790.45565	499.526363
790.350822	495.49943
790.526948	491.536133
790.227796	487.537683
790.351943	483.526029
790.086088	479.540611
790.152188	475.527933
790.15398	471.5296
790.239632	467.535045
790.319524	463.533614
790.214693	459.539775
790.180252	455.559645
790.007512	451.544063
790.01764	447.545217
789.880352	443.547287
789.843781	439.554344
789.955153	435.54571
789.86857	431.554917
789.849788	427.542085
789.811081	423.570459
789.798927	419.564036
789.749276	415.563463
789.804667	411.55543
789.806086	407.58505
789.701319	403.570174
789.615904	399.575579
789.577791	395.566859
789.60828	391.589559
789.425616	387.590114
789.427819	383.583511
789.44718	379.574007
789.328783	375.605836
789.397138	371.59616
789.253046	367.585702
789.29241	363.588741
789.325616	359.621315
789.400382	355.610465
789.122268	351.61644
789.192745	347.606166
789.112521	343.631725
789.191081	339.608623
789.03278	335.629456
788.996819	331.625906
788.836797	327.642679
788.672001	323.644943
788.821563	319.623881
788.756663	315.648006
788.594695	311.654939
788.911089	307.632763
788.628717	303.645011
788.514278	299.674391
788.640533	295.66669
788.708762	291.666625
788.544869	287.672972
788.484005	283.68473
788.419716	279.681485
788.41075	275.672203
788.321951	271.697954
788.272446	267.69685
788.168561	263.70861
788.15874	259.695285
788.244096	255.70332
788.239013	251.70047
788.142104	247.699275
788.014894	243.730242
788.011818	239.732795
787.844434	235.7466
787.913611	231.735983
787.838522	227.751862
787.9016	223.750777
787.638699	219.760461
787.780606	215.770278
787.488552	211.782301
787.514223	207.772891
787.461213	203.784002
787.47263	199.789063
787.24178	195.809644
787.20324	191.798689
786.977948	187.829194
787.1038	183.811273
786.949356	179.831427
786.834065	175.839531
786.675593	171.853463
786.772602	167.83071
786.675855	163.872092
786.551167	159.865198
786.277717	155.890682
786.187445	151.893076
786.232677	147.883449
786.148578	143.883657
786.03039	139.926139
786.009068	135.92476
785.889273	131.924864
785.667414	127.967492
785.748126	123.933538
785.404837	119.97014
785.256837	115.994045
784.981088	111.998814
785.160982	107.967596
784.987205	104.008783
784.832197	100.024078
784.728715	96.014278
784.688402	92.048441
784.516268	88.055776
784.338782	84.080489
784.188818	80.084774
783.823027	76.106852
783.834893	72.106804
783.585881	68.127379
783.698924	64.123652
783.353187	60.157314
783.198684	56.164979
783.230405	52.178276
782.872258	48.221842
782.714681	44.226458
782.529448	40.248313
782.158773	36.276626
781.902908	32.285178
781.806974	28.280444
781.481857	24.329674
781.354059	20.331958
781.028598	16.351399
780.811778	12.384058
780.653788	8.413927
780.453226	4.503272
780.152512	2.438489
	


